"0% V - RawData"
"Wavelength nm.","Abs."
300.00000,4.000000
300.50000, 
301.00000,3.962891
301.50000, 
302.00000,3.949356
302.50000, 
303.00000,3.992279
303.50000, 
304.00000,4.000000
304.50000, 
305.00000,3.999039
305.50000, 
306.00000,3.944611
306.50000, 
307.00000,3.918015
307.50000, 
308.00000,3.992203
308.50000, 
309.00000,3.927444
309.50000, 
310.00000,3.911011
310.50000, 
311.00000,3.947540
311.50000, 
312.00000,3.827621
312.50000, 
313.00000,3.912674
313.50000, 
314.00000,3.975571
314.50000, 
315.00000,3.967621
315.50000, 
316.00000,4.000000
316.50000, 
317.00000,3.983780
317.50000, 
318.00000,3.852478
318.50000, 
319.00000,3.956421
319.50000, 
320.00000,3.983032
320.50000, 
321.00000,4.000000
321.50000, 
322.00000,3.976990
322.50000, 
323.00000,3.847305
323.50000, 
324.00000,3.913177
324.50000, 
325.00000,3.901703
325.50000, 
326.00000,3.965332
326.50000, 
327.00000,3.994507
327.50000, 
328.00000,3.975204
328.50000, 
329.00000,3.913651
329.50000, 
330.00000,3.874680
330.50000, 
331.00000,3.956085
331.50000, 
332.00000,3.981964
332.50000, 
333.00000,4.000000
333.50000, 
334.00000,3.975327
334.50000, 
335.00000,3.888336
335.50000, 
336.00000,3.822952
336.50000, 
337.00000,3.937271
337.50000, 
338.00000,3.881027
338.50000, 
339.00000,3.969681
339.50000, 
340.00000,3.909760
340.50000, 
341.00000,3.902542
341.50000, 
342.00000,4.000000
342.50000, 
343.00000,4.000000
343.50000, 
344.00000,3.898712
344.50000, 
345.00000,3.919128
345.50000, 
346.00000,3.977295
346.50000, 
347.00000,3.977982
347.50000, 
348.00000,3.949890
348.50000, 
349.00000,3.813766
349.50000, 
350.00000,3.995590
350.50000, 
351.00000,3.946335
351.50000, 
352.00000,3.957687
352.50000, 
353.00000,3.891678
353.50000, 
354.00000,3.985077
354.50000, 
355.00000,3.917923
355.50000, 
356.00000,3.853683
356.50000, 
357.00000,3.958313
357.50000, 
358.00000,3.656387
358.50000, 
359.00000,3.920135
359.50000, 
360.00000,3.913330
360.50000, 
361.00000,3.934021
361.50000, 
362.00000,3.891708
362.50000, 
363.00000,3.902039
363.50000, 
364.00000,3.968277
364.50000, 
365.00000,3.901886
365.50000, 
366.00000,3.858383
366.50000, 
367.00000,3.902313
367.50000, 
368.00000,3.880447
368.50000, 
369.00000,3.821793
369.50000, 
370.00000,3.921570
370.50000, 
371.00000,3.810013
371.50000, 
372.00000,3.937973
372.50000, 
373.00000,3.914139
373.50000, 
374.00000,3.903061
374.50000, 
375.00000,3.923737
375.50000, 
376.00000,3.653198
376.50000, 
377.00000,3.561188
377.50000, 
378.00000,3.212952
378.50000, 
379.00000,2.942764
379.50000, 
380.00000,2.755707
380.50000, 
381.00000,2.564438
381.50000, 
382.00000,2.380707
382.50000, 
383.00000,2.222275
383.50000, 
384.00000,2.080887
384.50000, 
385.00000,1.954346
385.50000, 
386.00000,1.846207
386.50000, 
387.00000,1.754135
387.50000, 
388.00000,1.673645
388.50000, 
389.00000,1.603622
389.50000, 
390.00000,1.548218
390.50000, 
391.00000,1.500046
391.50000, 
392.00000,1.461212
392.50000, 
393.00000,1.429794
393.50000, 
394.00000,1.403717
394.50000, 
395.00000,1.381241
395.50000, 
396.00000,1.361618
396.50000, 
397.00000,1.342758
397.50000, 
398.00000,1.325729
398.50000, 
399.00000,1.310501
399.50000, 
400.00000,1.297119
400.50000, 
401.00000,1.285034
401.50000, 
402.00000,1.274429
402.50000, 
403.00000,1.265640
403.50000, 
404.00000,1.258118
404.50000, 
405.00000,1.252441
405.50000, 
406.00000,1.247955
406.50000, 
407.00000,1.243607
407.50000, 
408.00000,1.241058
408.50000, 
409.00000,1.239120
409.50000, 
410.00000,1.237900
410.50000, 
411.00000,1.237640
411.50000, 
412.00000,1.237381
412.50000, 
413.00000,1.237900
413.50000, 
414.00000,1.238480
414.50000, 
415.00000,1.240295
415.50000, 
416.00000,1.241287
416.50000, 
417.00000,1.243713
417.50000, 
418.00000,1.246490
418.50000, 
419.00000,1.248795
419.50000, 
420.00000,1.251297
420.50000, 
421.00000,1.254440
421.50000, 
422.00000,1.258347
422.50000, 
423.00000,1.261688
423.50000, 
424.00000,1.265625
424.50000, 
425.00000,1.270020
425.50000, 
426.00000,1.274414
426.50000, 
427.00000,1.278519
427.50000, 
428.00000,1.283020
428.50000, 
429.00000,1.287811
429.50000, 
430.00000,1.292755
430.50000, 
431.00000,1.297211
431.50000, 
432.00000,1.302841
432.50000, 
433.00000,1.308044
433.50000, 
434.00000,1.313522
434.50000, 
435.00000,1.319183
435.50000, 
436.00000,1.324081
436.50000, 
437.00000,1.329315
437.50000, 
438.00000,1.335007
438.50000, 
439.00000,1.340424
439.50000, 
440.00000,1.346161
440.50000, 
441.00000,1.352020
441.50000, 
442.00000,1.357849
442.50000, 
443.00000,1.363556
443.50000, 
444.00000,1.369370
444.50000, 
445.00000,1.375381
445.50000, 
446.00000,1.381226
446.50000, 
447.00000,1.387466
447.50000, 
448.00000,1.394180
448.50000, 
449.00000,1.400711
449.50000, 
450.00000,1.406647
450.50000, 
451.00000,1.412735
451.50000, 
452.00000,1.419693
452.50000, 
453.00000,1.425888
453.50000, 
454.00000,1.431915
454.50000, 
455.00000,1.438721
455.50000, 
456.00000,1.445007
456.50000, 
457.00000,1.451172
457.50000, 
458.00000,1.457169
458.50000, 
459.00000,1.463516
459.50000, 
460.00000,1.469666
460.50000, 
461.00000,1.475891
461.50000, 
462.00000,1.481384
462.50000, 
463.00000,1.487122
463.50000, 
464.00000,1.492844
464.50000, 
465.00000,1.497360
465.50000, 
466.00000,1.501755
466.50000, 
467.00000,1.504700
467.50000, 
468.00000,1.504822
468.50000, 
469.00000,1.509903
469.50000, 
470.00000,1.518707
470.50000, 
471.00000,1.527725
471.50000, 
472.00000,1.538223
472.50000, 
473.00000,1.548874
473.50000, 
474.00000,1.560883
474.50000, 
475.00000,1.573883
475.50000, 
476.00000,1.588806
476.50000, 
477.00000,1.605042
477.50000, 
478.00000,1.622177
478.50000, 
479.00000,1.642349
479.50000, 
480.00000,1.663010
480.50000, 
481.00000,1.684738
481.50000, 
482.00000,1.707886
482.50000, 
483.00000,1.730515
483.50000, 
484.00000,1.752090
484.50000, 
485.00000,1.771912
485.50000, 
486.00000,1.788208
486.50000, 
487.00000,1.801331
487.50000, 
488.00000,1.812149
488.50000, 
489.00000,1.819138
489.50000, 
490.00000,1.822784
490.50000, 
491.00000,1.824478
491.50000, 
492.00000,1.825073
492.50000, 
493.00000,1.824265
493.50000, 
494.00000,1.821671
494.50000, 
495.00000,1.819183
495.50000, 
496.00000,1.817001
496.50000, 
497.00000,1.813690
497.50000, 
498.00000,1.810883
498.50000, 
499.00000,1.808624
499.50000, 
500.00000,1.805710
500.50000, 
501.00000,1.803665
501.50000, 
502.00000,1.801270
502.50000, 
503.00000,1.799942
503.50000, 
504.00000,1.798111
504.50000, 
505.00000,1.796265
505.50000, 
506.00000,1.794495
506.50000, 
507.00000,1.793381
507.50000, 
508.00000,1.791809
508.50000, 
509.00000,1.789566
509.50000, 
510.00000,1.788147
510.50000, 
511.00000,1.786514
511.50000, 
512.00000,1.785004
512.50000, 
513.00000,1.783173
513.50000, 
514.00000,1.781418
514.50000, 
515.00000,1.779297
515.50000, 
516.00000,1.777115
516.50000, 
517.00000,1.774445
517.50000, 
518.00000,1.772522
518.50000, 
519.00000,1.770126
519.50000, 
520.00000,1.767563
520.50000, 
521.00000,1.764999
521.50000, 
522.00000,1.762253
522.50000, 
523.00000,1.759674
523.50000, 
524.00000,1.757095
524.50000, 
525.00000,1.755280
525.50000, 
526.00000,1.752609
526.50000, 
527.00000,1.750000
527.50000, 
528.00000,1.747742
528.50000, 
529.00000,1.745728
529.50000, 
530.00000,1.743698
530.50000, 
531.00000,1.741760
531.50000, 
532.00000,1.739914
532.50000, 
533.00000,1.738312
533.50000, 
534.00000,1.737000
534.50000, 
535.00000,1.735733
535.50000, 
536.00000,1.732010
536.50000, 
537.00000,1.728409
537.50000, 
538.00000,1.727203
538.50000, 
539.00000,1.725998
539.50000, 
540.00000,1.724701
540.50000, 
541.00000,1.723343
541.50000, 
542.00000,1.721802
542.50000, 
543.00000,1.720490
543.50000, 
544.00000,1.718719
544.50000, 
545.00000,1.716492
545.50000, 
546.00000,1.714493
546.50000, 
547.00000,1.711884
547.50000, 
548.00000,1.709106
548.50000, 
549.00000,1.705414
549.50000, 
550.00000,1.701935
550.50000, 
551.00000,1.697556
551.50000, 
552.00000,1.692963
552.50000, 
553.00000,1.687698
553.50000, 
554.00000,1.682144
554.50000, 
555.00000,1.676132
555.50000, 
556.00000,1.669312
556.50000, 
557.00000,1.662689
557.50000, 
558.00000,1.655167
558.50000, 
559.00000,1.647400
559.50000, 
560.00000,1.639481
560.50000, 
561.00000,1.631027
561.50000, 
562.00000,1.622589
562.50000, 
563.00000,1.613754
563.50000, 
564.00000,1.604507
564.50000, 
565.00000,1.595245
565.50000, 
566.00000,1.585724
566.50000, 
567.00000,1.576324
567.50000, 
568.00000,1.567169
568.50000, 
569.00000,1.557602
569.50000, 
570.00000,1.547791
570.50000, 
571.00000,1.538040
571.50000, 
572.00000,1.528702
572.50000, 
573.00000,1.519348
573.50000, 
574.00000,1.510818
574.50000, 
575.00000,1.502518
575.50000, 
576.00000,1.494385
576.50000, 
577.00000,1.487091
577.50000, 
578.00000,1.480148
578.50000, 
579.00000,1.473251
579.50000, 
580.00000,1.467392
580.50000, 
581.00000,1.461929
581.50000, 
582.00000,1.456894
582.50000, 
583.00000,1.452347
583.50000, 
584.00000,1.448257
584.50000, 
585.00000,1.444519
585.50000, 
586.00000,1.440689
586.50000, 
587.00000,1.437744
587.50000, 
588.00000,1.434601
588.50000, 
589.00000,1.431778
589.50000, 
590.00000,1.429016
590.50000, 
591.00000,1.426163
591.50000, 
592.00000,1.423645
592.50000, 
593.00000,1.420471
593.50000, 
594.00000,1.417297
594.50000, 
595.00000,1.413773
595.50000, 
596.00000,1.409805
596.50000, 
597.00000,1.405228
597.50000, 
598.00000,1.400482
598.50000, 
599.00000,1.394745
599.50000, 
600.00000,1.388565
600.50000, 
601.00000,1.381363
601.50000, 
602.00000,1.373611
602.50000, 
603.00000,1.365463
603.50000, 
604.00000,1.356277
604.50000, 
605.00000,1.346695
605.50000, 
606.00000,1.336517
606.50000, 
607.00000,1.325348
607.50000, 
608.00000,1.313553
608.50000, 
609.00000,1.300980
609.50000, 
610.00000,1.287888
610.50000, 
611.00000,1.274231
611.50000, 
612.00000,1.260376
612.50000, 
613.00000,1.245911
613.50000, 
614.00000,1.231522
614.50000, 
615.00000,1.216599
615.50000, 
616.00000,1.200760
616.50000, 
617.00000,1.184494
617.50000, 
618.00000,1.167953
618.50000, 
619.00000,1.150757
619.50000, 
620.00000,1.133743
620.50000, 
621.00000,1.117432
621.50000, 
622.00000,1.100494
622.50000, 
623.00000,1.084076
623.50000, 
624.00000,1.067719
624.50000, 
625.00000,1.050964
625.50000, 
626.00000,1.033997
626.50000, 
627.00000,1.016449
627.50000, 
628.00000,0.997391
628.50000, 
629.00000,0.974701
629.50000, 
630.00000,0.964355
630.50000, 
631.00000,0.968140
631.50000, 
632.00000,0.976578
632.50000, 
633.00000,0.989883
633.50000, 
634.00000,1.008392
634.50000, 
635.00000,1.032227
635.50000, 
636.00000,1.058685
636.50000, 
637.00000,1.087921
637.50000, 
638.00000,1.115463
638.50000, 
639.00000,1.138977
639.50000, 
640.00000,1.154709
640.50000, 
641.00000,1.162552
641.50000, 
642.00000,1.161713
642.50000, 
643.00000,1.153336
643.50000, 
644.00000,1.139450
644.50000, 
645.00000,1.121857
645.50000, 
646.00000,1.103134
646.50000, 
647.00000,1.083710
647.50000, 
648.00000,1.064880
648.50000, 
649.00000,1.046524
649.50000, 
650.00000,1.029953
650.50000, 
651.00000,1.014801
651.50000, 
652.00000,1.000702
652.50000, 
653.00000,0.988129
653.50000, 
654.00000,0.976349
654.50000, 
655.00000,0.965302
655.50000, 
656.00000,0.955093
656.50000, 
657.00000,0.946014
657.50000, 
658.00000,0.937729
658.50000, 
659.00000,0.930115
659.50000, 
660.00000,0.922928
660.50000, 
661.00000,0.916290
661.50000, 
662.00000,0.910309
662.50000, 
663.00000,0.904602
663.50000, 
664.00000,0.899033
664.50000, 
665.00000,0.894089
665.50000, 
666.00000,0.889252
666.50000, 
667.00000,0.884613
667.50000, 
668.00000,0.880203
668.50000, 
669.00000,0.876251
669.50000, 
670.00000,0.872284
670.50000, 
671.00000,0.868866
671.50000, 
672.00000,0.865509
672.50000, 
673.00000,0.862457
673.50000, 
674.00000,0.859360
674.50000, 
675.00000,0.856491
675.50000, 
676.00000,0.853683
676.50000, 
677.00000,0.851135
677.50000, 
678.00000,0.848633
678.50000, 
679.00000,0.846512
679.50000, 
680.00000,0.844254
680.50000, 
681.00000,0.842209
681.50000, 
682.00000,0.840073
682.50000, 
683.00000,0.838135
683.50000, 
684.00000,0.836182
684.50000, 
685.00000,0.834534
685.50000, 
686.00000,0.832733
686.50000, 
687.00000,0.831146
687.50000, 
688.00000,0.829407
688.50000, 
689.00000,0.827896
689.50000, 
690.00000,0.826309
690.50000, 
691.00000,0.824844
691.50000, 
692.00000,0.823395
692.50000, 
693.00000,0.821915
693.50000, 
694.00000,0.820404
694.50000, 
695.00000,0.819153
695.50000, 
696.00000,0.817825
696.50000, 
697.00000,0.816574
697.50000, 
698.00000,0.815384
698.50000, 
699.00000,0.814041
699.50000, 
700.00000,0.813049
700.50000, 
701.00000,0.811813
701.50000, 
702.00000,0.810699
702.50000, 
703.00000,0.809525
703.50000, 
704.00000,0.808548
704.50000, 
705.00000,0.807465
705.50000, 
706.00000,0.806503
706.50000, 
707.00000,0.805511
707.50000, 
708.00000,0.804520
708.50000, 
709.00000,0.803726
709.50000, 
710.00000,0.802704
710.50000, 
711.00000,0.801926
711.50000, 
712.00000,0.800858
712.50000, 
713.00000,0.799973
713.50000, 
714.00000,0.798950
714.50000, 
715.00000,0.798096
715.50000, 
716.00000,0.797272
716.50000, 
717.00000,0.796402
717.50000, 
718.00000,0.795715
718.50000, 
719.00000,0.794830
719.50000, 
720.00000,0.794006
720.50000, 
721.00000,0.793152
721.50000, 
722.00000,0.792511
722.50000, 
723.00000,0.791672
723.50000, 
724.00000,0.791046
724.50000, 
725.00000,0.790298
725.50000, 
726.00000,0.789612
726.50000, 
727.00000,0.789047
727.50000, 
728.00000,0.788208
728.50000, 
729.00000,0.787781
729.50000, 
730.00000,0.787033
730.50000, 
731.00000,0.786407
731.50000, 
732.00000,0.785904
732.50000, 
733.00000,0.785233
733.50000, 
734.00000,0.784851
734.50000, 
735.00000,0.784119
735.50000, 
736.00000,0.783615
736.50000, 
737.00000,0.783066
737.50000, 
738.00000,0.782318
738.50000, 
739.00000,0.781921
739.50000, 
740.00000,0.781296
740.50000, 
741.00000,0.780807
741.50000, 
742.00000,0.780136
742.50000, 
743.00000,0.779541
743.50000, 
744.00000,0.779083
744.50000, 
745.00000,0.778397
745.50000, 
746.00000,0.778091
746.50000, 
747.00000,0.777557
747.50000, 
748.00000,0.777222
748.50000, 
749.00000,0.776764
749.50000, 
750.00000,0.776276
750.50000, 
751.00000,0.775879
751.50000, 
752.00000,0.775482
752.50000, 
753.00000,0.775024
753.50000, 
754.00000,0.774658
754.50000, 
755.00000,0.774216
755.50000, 
756.00000,0.773758
756.50000, 
757.00000,0.773590
757.50000, 
758.00000,0.773026
758.50000, 
759.00000,0.772842
759.50000, 
760.00000,0.772415
760.50000, 
761.00000,0.771957
761.50000, 
762.00000,0.771622
762.50000, 
763.00000,0.771042
763.50000, 
764.00000,0.770981
764.50000, 
765.00000,0.770447
765.50000, 
766.00000,0.770187
766.50000, 
767.00000,0.769821
767.50000, 
768.00000,0.769409
768.50000, 
769.00000,0.769104
769.50000, 
770.00000,0.768723
770.50000, 
771.00000,0.768372
771.50000, 
772.00000,0.768143
772.50000, 
773.00000,0.767731
773.50000, 
774.00000,0.767227
774.50000, 
775.00000,0.767059
775.50000, 
776.00000,0.766434
776.50000, 
777.00000,0.766403
777.50000, 
778.00000,0.765762
778.50000, 
779.00000,0.765366
779.50000, 
780.00000,0.764938
780.50000, 
781.00000,0.764526
781.50000, 
782.00000,0.763809
782.50000, 
783.00000,0.763611
783.50000, 
784.00000,0.762680
784.50000, 
785.00000,0.762329
785.50000, 
786.00000,0.761490
786.50000, 
787.00000,0.760696
787.50000, 
788.00000,0.760040
788.50000, 
789.00000,0.759216
789.50000, 
790.00000,0.758255
790.50000, 
791.00000,0.757614
791.50000, 
792.00000,0.756317
792.50000, 
793.00000,0.755371
793.50000, 
794.00000,0.754181
794.50000, 
795.00000,0.752838
795.50000, 
796.00000,0.751663
796.50000, 
797.00000,0.750595
797.50000, 
798.00000,0.748795
798.50000, 
799.00000,0.747437
799.50000, 
800.00000,0.745697
800.50000, 
801.00000,0.743958
801.50000, 
802.00000,0.742065
802.50000, 
803.00000,0.740173
803.50000, 
804.00000,0.737595
804.50000, 
805.00000,0.735657
805.50000, 
806.00000,0.733124
806.50000, 
807.00000,0.730698
807.50000, 
808.00000,0.727936
808.50000, 
809.00000,0.725143
809.50000, 
810.00000,0.721756
810.50000, 
811.00000,0.718979
811.50000, 
812.00000,0.715164
812.50000, 
813.00000,0.711899
813.50000, 
814.00000,0.708405
814.50000, 
815.00000,0.704865
815.50000, 
816.00000,0.700790
816.50000, 
817.00000,0.697327
817.50000, 
818.00000,0.692963
818.50000, 
819.00000,0.689087
819.50000, 
820.00000,0.684860
820.50000, 
821.00000,0.680481
821.50000, 
822.00000,0.676071
822.50000, 
823.00000,0.671600
823.50000, 
824.00000,0.666718
824.50000, 
825.00000,0.662018
825.50000, 
826.00000,0.657639
826.50000, 
827.00000,0.652069
827.50000, 
828.00000,0.647141
828.50000, 
829.00000,0.642029
829.50000, 
830.00000,0.636703
830.50000, 
831.00000,0.630829
831.50000, 
832.00000,0.625839
832.50000, 
833.00000,0.619965
833.50000, 
834.00000,0.614151
834.50000, 
835.00000,0.609024
835.50000, 
836.00000,0.603256
836.50000, 
837.00000,0.597351
837.50000, 
838.00000,0.591980
838.50000, 
839.00000,0.586319
839.50000, 
840.00000,0.579956
840.50000, 
841.00000,0.574921
841.50000, 
842.00000,0.569077
842.50000, 
843.00000,0.563065
843.50000, 
844.00000,0.557587
844.50000, 
845.00000,0.552124
845.50000, 
846.00000,0.546188
846.50000, 
847.00000,0.540344
847.50000, 
848.00000,0.535233
848.50000, 
849.00000,0.528610
849.50000, 
850.00000,0.522797
850.50000, 
851.00000,0.517319
851.50000, 
852.00000,0.511185
852.50000, 
853.00000,0.505020
853.50000, 
854.00000,0.499680
854.50000, 
855.00000,0.493759
855.50000, 
856.00000,0.487686
856.50000, 
857.00000,0.482758
857.50000, 
858.00000,0.476776
858.50000, 
859.00000,0.471130
859.50000, 
860.00000,0.465942
860.50000, 
861.00000,0.460907
861.50000, 
862.00000,0.455261
862.50000, 
863.00000,0.450531
863.50000, 
864.00000,0.445938
864.50000, 
865.00000,0.440491
865.50000, 
866.00000,0.435776
866.50000, 
867.00000,0.431427
867.50000, 
868.00000,0.426468
868.50000, 
869.00000,0.421509
869.50000, 
870.00000,0.417404
870.50000, 
871.00000,0.412979
871.50000, 
872.00000,0.407898
872.50000, 
873.00000,0.403809
873.50000, 
874.00000,0.399887
874.50000, 
875.00000,0.395081
875.50000, 
876.00000,0.390549
876.50000, 
877.00000,0.386826
877.50000, 
878.00000,0.382370
878.50000, 
879.00000,0.377930
879.50000, 
880.00000,0.374573
880.50000, 
881.00000,0.371078
881.50000, 
882.00000,0.366989
882.50000, 
883.00000,0.363266
883.50000, 
884.00000,0.360260
884.50000, 
885.00000,0.356476
885.50000, 
886.00000,0.352676
886.50000, 
887.00000,0.349991
887.50000, 
888.00000,0.346924
888.50000, 
889.00000,0.343262
889.50000, 
890.00000,0.340042
890.50000, 
891.00000,0.337677
891.50000, 
892.00000,0.334473
892.50000, 
893.00000,0.330948
893.50000, 
894.00000,0.328644
894.50000, 
895.00000,0.325912
895.50000, 
896.00000,0.322754
896.50000, 
897.00000,0.320053
897.50000, 
898.00000,0.317932
898.50000, 
899.00000,0.315414
899.50000, 
900.00000,0.312912
900.50000, 
901.00000, 
901.50000, 
902.00000, 
902.50000, 
903.00000, 
903.50000, 
904.00000, 
904.50000, 
905.00000, 
905.50000, 
906.00000, 
906.50000, 
907.00000, 
907.50000, 
908.00000, 
908.50000, 
909.00000, 
909.50000, 
910.00000, 
910.50000, 
911.00000, 
911.50000, 
912.00000, 
912.50000, 
913.00000, 
913.50000, 
914.00000, 
914.50000, 
915.00000, 
915.50000, 
916.00000, 
916.50000, 
917.00000, 
917.50000, 
918.00000, 
918.50000, 
919.00000, 
919.50000, 
920.00000, 
920.50000, 
921.00000, 
921.50000, 
922.00000, 
922.50000, 
923.00000, 
923.50000, 
924.00000, 
924.50000, 
925.00000, 
925.50000, 
926.00000, 
926.50000, 
927.00000, 
927.50000, 
928.00000, 
928.50000, 
929.00000, 
929.50000, 
930.00000, 
930.50000, 
931.00000, 
931.50000, 
932.00000, 
932.50000, 
933.00000, 
933.50000, 
934.00000, 
934.50000, 
935.00000, 
935.50000, 
936.00000, 
936.50000, 
937.00000, 
937.50000, 
938.00000, 
938.50000, 
939.00000, 
939.50000, 
940.00000, 
940.50000, 
941.00000, 
941.50000, 
942.00000, 
942.50000, 
943.00000, 
943.50000, 
944.00000, 
944.50000, 
945.00000, 
945.50000, 
946.00000, 
946.50000, 
947.00000, 
947.50000, 
948.00000, 
948.50000, 
949.00000, 
949.50000, 
950.00000, 
950.50000, 
951.00000, 
951.50000, 
952.00000, 
952.50000, 
953.00000, 
953.50000, 
954.00000, 
954.50000, 
955.00000, 
955.50000, 
956.00000, 
956.50000, 
957.00000, 
957.50000, 
958.00000, 
958.50000, 
959.00000, 
959.50000, 
960.00000, 
960.50000, 
961.00000, 
961.50000, 
962.00000, 
962.50000, 
963.00000, 
963.50000, 
964.00000, 
964.50000, 
965.00000, 
965.50000, 
966.00000, 
966.50000, 
967.00000, 
967.50000, 
968.00000, 
968.50000, 
969.00000, 
969.50000, 
970.00000, 
970.50000, 
971.00000, 
971.50000, 
972.00000, 
972.50000, 
973.00000, 
973.50000, 
974.00000, 
974.50000, 
975.00000, 
975.50000, 
976.00000, 
976.50000, 
977.00000, 
977.50000, 
978.00000, 
978.50000, 
979.00000, 
979.50000, 
980.00000, 
980.50000, 
981.00000, 
981.50000, 
982.00000, 
982.50000, 
983.00000, 
983.50000, 
984.00000, 
984.50000, 
985.00000, 
985.50000, 
986.00000, 
986.50000, 
987.00000, 
987.50000, 
988.00000, 
988.50000, 
989.00000, 
989.50000, 
990.00000, 
990.50000, 
991.00000, 
991.50000, 
992.00000, 
992.50000, 
993.00000, 
993.50000, 
994.00000, 
994.50000, 
995.00000, 
995.50000, 
996.00000, 
996.50000, 
997.00000, 
997.50000, 
998.00000, 
998.50000, 
999.00000, 
999.50000, 
1000.00000, 
1000.50000, 
1001.00000, 
1001.50000, 
1002.00000, 
1002.50000, 
1003.00000, 
1003.50000, 
1004.00000, 
1004.50000, 
1005.00000, 
1005.50000, 
1006.00000, 
1006.50000, 
1007.00000, 
1007.50000, 
1008.00000, 
1008.50000, 
1009.00000, 
1009.50000, 
1010.00000, 
1010.50000, 
1011.00000, 
1011.50000, 
1012.00000, 
1012.50000, 
1013.00000, 
1013.50000, 
1014.00000, 
1014.50000, 
1015.00000, 
1015.50000, 
1016.00000, 
1016.50000, 
1017.00000, 
1017.50000, 
1018.00000, 
1018.50000, 
1019.00000, 
1019.50000, 
1020.00000, 
1020.50000, 
1021.00000, 
1021.50000, 
1022.00000, 
1022.50000, 
1023.00000, 
1023.50000, 
1024.00000, 
1024.50000, 
1025.00000, 
1025.50000, 
1026.00000, 
1026.50000, 
1027.00000, 
1027.50000, 
1028.00000, 
1028.50000, 
1029.00000, 
1029.50000, 
1030.00000, 
1030.50000, 
1031.00000, 
1031.50000, 
1032.00000, 
1032.50000, 
1033.00000, 
1033.50000, 
1034.00000, 
1034.50000, 
1035.00000, 
1035.50000, 
1036.00000, 
1036.50000, 
1037.00000, 
1037.50000, 
1038.00000, 
1038.50000, 
1039.00000, 
1039.50000, 
1040.00000, 
1040.50000, 
1041.00000, 
1041.50000, 
1042.00000, 
1042.50000, 
1043.00000, 
1043.50000, 
1044.00000, 
1044.50000, 
1045.00000, 
1045.50000, 
1046.00000, 
1046.50000, 
1047.00000, 
1047.50000, 
1048.00000, 
1048.50000, 
1049.00000, 
1049.50000, 
1050.00000, 
1050.50000, 
1051.00000, 
1051.50000, 
1052.00000, 
1052.50000, 
1053.00000, 
1053.50000, 
1054.00000, 
1054.50000, 
1055.00000, 
1055.50000, 
1056.00000, 
1056.50000, 
1057.00000, 
1057.50000, 
1058.00000, 
1058.50000, 
1059.00000, 
1059.50000, 
1060.00000, 
1060.50000, 
1061.00000, 
1061.50000, 
1062.00000, 
1062.50000, 
1063.00000, 
1063.50000, 
1064.00000, 
1064.50000, 
1065.00000, 
1065.50000, 
1066.00000, 
1066.50000, 
1067.00000, 
1067.50000, 
1068.00000, 
1068.50000, 
1069.00000, 
1069.50000, 
1070.00000, 
1070.50000, 
1071.00000, 
1071.50000, 
1072.00000, 
1072.50000, 
1073.00000, 
1073.50000, 
1074.00000, 
1074.50000, 
1075.00000, 
1075.50000, 
1076.00000, 
1076.50000, 
1077.00000, 
1077.50000, 
1078.00000, 
1078.50000, 
1079.00000, 
1079.50000, 
1080.00000, 
1080.50000, 
1081.00000, 
1081.50000, 
1082.00000, 
1082.50000, 
1083.00000, 
1083.50000, 
1084.00000, 
1084.50000, 
1085.00000, 
1085.50000, 
1086.00000, 
1086.50000, 
1087.00000, 
1087.50000, 
1088.00000, 
1088.50000, 
1089.00000, 
1089.50000, 
1090.00000, 
1090.50000, 
1091.00000, 
1091.50000, 
1092.00000, 
1092.50000, 
1093.00000, 
1093.50000, 
1094.00000, 
1094.50000, 
1095.00000, 
1095.50000, 
1096.00000, 
1096.50000, 
1097.00000, 
1097.50000, 
1098.00000, 
1098.50000, 
1099.00000, 
1099.50000, 
1100.00000, 
