"20% V - RawData"
"Wavelength nm.","Abs."
300.00000,4.000000
300.50000, 
301.00000,3.999512
301.50000, 
302.00000,3.999359
302.50000, 
303.00000,3.978012
303.50000, 
304.00000,3.991241
304.50000, 
305.00000,4.000000
305.50000, 
306.00000,3.978745
306.50000, 
307.00000,3.996780
307.50000, 
308.00000,3.914017
308.50000, 
309.00000,4.000000
309.50000, 
310.00000,4.000000
310.50000, 
311.00000,3.984985
311.50000, 
312.00000,3.933090
312.50000, 
313.00000,4.000000
313.50000, 
314.00000,4.000000
314.50000, 
315.00000,4.000000
315.50000, 
316.00000,3.991165
316.50000, 
317.00000,3.934769
317.50000, 
318.00000,3.908401
318.50000, 
319.00000,3.897385
319.50000, 
320.00000,4.000000
320.50000, 
321.00000,3.984070
321.50000, 
322.00000,3.985580
322.50000, 
323.00000,3.949432
323.50000, 
324.00000,3.972977
324.50000, 
325.00000,3.968033
325.50000, 
326.00000,3.912033
326.50000, 
327.00000,4.000000
327.50000, 
328.00000,3.943680
328.50000, 
329.00000,3.925781
329.50000, 
330.00000,4.000000
330.50000, 
331.00000,3.960449
331.50000, 
332.00000,3.899323
332.50000, 
333.00000,3.912964
333.50000, 
334.00000,3.956146
334.50000, 
335.00000,3.915268
335.50000, 
336.00000,3.959381
336.50000, 
337.00000,3.955872
337.50000, 
338.00000,4.000000
338.50000, 
339.00000,3.892136
339.50000, 
340.00000,4.000000
340.50000, 
341.00000,3.970169
341.50000, 
342.00000,3.864563
342.50000, 
343.00000,3.872726
343.50000, 
344.00000,3.915070
344.50000, 
345.00000,3.959396
345.50000, 
346.00000,3.951706
346.50000, 
347.00000,3.989090
347.50000, 
348.00000,3.984344
348.50000, 
349.00000,3.927246
349.50000, 
350.00000,3.941986
350.50000, 
351.00000,4.000000
351.50000, 
352.00000,4.000000
352.50000, 
353.00000,3.977005
353.50000, 
354.00000,3.953278
354.50000, 
355.00000,3.955841
355.50000, 
356.00000,3.943817
356.50000, 
357.00000,3.984390
357.50000, 
358.00000,3.868042
358.50000, 
359.00000,3.939682
359.50000, 
360.00000,3.936554
360.50000, 
361.00000,3.866760
361.50000, 
362.00000,3.728561
362.50000, 
363.00000,3.882111
363.50000, 
364.00000,3.847107
364.50000, 
365.00000,3.896057
365.50000, 
366.00000,3.799316
366.50000, 
367.00000,3.676392
367.50000, 
368.00000,3.958817
368.50000, 
369.00000,3.970520
369.50000, 
370.00000,3.819504
370.50000, 
371.00000,3.956619
371.50000, 
372.00000,3.994095
372.50000, 
373.00000,3.983643
373.50000, 
374.00000,3.780258
374.50000, 
375.00000,3.935562
375.50000, 
376.00000,3.653885
376.50000, 
377.00000,3.557007
377.50000, 
378.00000,3.155594
378.50000, 
379.00000,2.924301
379.50000, 
380.00000,2.719330
380.50000, 
381.00000,2.512421
381.50000, 
382.00000,2.314819
382.50000, 
383.00000,2.144531
383.50000, 
384.00000,2.006668
384.50000, 
385.00000,1.880035
385.50000, 
386.00000,1.773285
386.50000, 
387.00000,1.681717
387.50000, 
388.00000,1.597870
388.50000, 
389.00000,1.524399
389.50000, 
390.00000,1.466751
390.50000, 
391.00000,1.415176
391.50000, 
392.00000,1.374542
392.50000, 
393.00000,1.341583
393.50000, 
394.00000,1.313232
394.50000, 
395.00000,1.289871
395.50000, 
396.00000,1.267914
396.50000, 
397.00000,1.247345
397.50000, 
398.00000,1.230042
398.50000, 
399.00000,1.213547
399.50000, 
400.00000,1.198624
400.50000, 
401.00000,1.185959
401.50000, 
402.00000,1.174881
402.50000, 
403.00000,1.165527
403.50000, 
404.00000,1.157379
404.50000, 
405.00000,1.150345
405.50000, 
406.00000,1.145126
406.50000, 
407.00000,1.140518
407.50000, 
408.00000,1.137115
408.50000, 
409.00000,1.134109
409.50000, 
410.00000,1.131439
410.50000, 
411.00000,1.129990
411.50000, 
412.00000,1.129532
412.50000, 
413.00000,1.128891
413.50000, 
414.00000,1.128952
414.50000, 
415.00000,1.129074
415.50000, 
416.00000,1.129486
416.50000, 
417.00000,1.131561
417.50000, 
418.00000,1.132736
418.50000, 
419.00000,1.134048
419.50000, 
420.00000,1.135635
420.50000, 
421.00000,1.137787
421.50000, 
422.00000,1.139786
422.50000, 
423.00000,1.142136
423.50000, 
424.00000,1.144699
424.50000, 
425.00000,1.147415
425.50000, 
426.00000,1.150681
426.50000, 
427.00000,1.153473
427.50000, 
428.00000,1.156189
428.50000, 
429.00000,1.159668
429.50000, 
430.00000,1.162964
430.50000, 
431.00000,1.166504
431.50000, 
432.00000,1.170288
432.50000, 
433.00000,1.173965
433.50000, 
434.00000,1.177673
434.50000, 
435.00000,1.181198
435.50000, 
436.00000,1.185211
436.50000, 
437.00000,1.189026
437.50000, 
438.00000,1.193008
438.50000, 
439.00000,1.197067
439.50000, 
440.00000,1.201233
440.50000, 
441.00000,1.205460
441.50000, 
442.00000,1.209869
442.50000, 
443.00000,1.213852
443.50000, 
444.00000,1.218216
444.50000, 
445.00000,1.222565
445.50000, 
446.00000,1.226791
446.50000, 
447.00000,1.231415
447.50000, 
448.00000,1.235992
448.50000, 
449.00000,1.240646
449.50000, 
450.00000,1.245331
450.50000, 
451.00000,1.250031
451.50000, 
452.00000,1.254532
452.50000, 
453.00000,1.259018
453.50000, 
454.00000,1.264084
454.50000, 
455.00000,1.268784
455.50000, 
456.00000,1.273590
456.50000, 
457.00000,1.277847
457.50000, 
458.00000,1.283096
458.50000, 
459.00000,1.287445
459.50000, 
460.00000,1.291962
460.50000, 
461.00000,1.296768
461.50000, 
462.00000,1.301056
462.50000, 
463.00000,1.304932
463.50000, 
464.00000,1.308838
464.50000, 
465.00000,1.312347
465.50000, 
466.00000,1.315216
466.50000, 
467.00000,1.316879
467.50000, 
468.00000,1.316437
468.50000, 
469.00000,1.320084
469.50000, 
470.00000,1.327148
470.50000, 
471.00000,1.334412
471.50000, 
472.00000,1.343185
472.50000, 
473.00000,1.352386
473.50000, 
474.00000,1.362366
474.50000, 
475.00000,1.373428
475.50000, 
476.00000,1.386551
476.50000, 
477.00000,1.399841
477.50000, 
478.00000,1.414948
478.50000, 
479.00000,1.432312
479.50000, 
480.00000,1.449722
480.50000, 
481.00000,1.468460
481.50000, 
482.00000,1.488190
482.50000, 
483.00000,1.507843
483.50000, 
484.00000,1.526443
484.50000, 
485.00000,1.542831
485.50000, 
486.00000,1.556702
486.50000, 
487.00000,1.567612
487.50000, 
488.00000,1.576080
488.50000, 
489.00000,1.581802
489.50000, 
490.00000,1.585022
490.50000, 
491.00000,1.586334
491.50000, 
492.00000,1.586090
492.50000, 
493.00000,1.584930
493.50000, 
494.00000,1.583145
494.50000, 
495.00000,1.580826
495.50000, 
496.00000,1.578506
496.50000, 
497.00000,1.576141
497.50000, 
498.00000,1.573517
498.50000, 
499.00000,1.570953
499.50000, 
500.00000,1.568542
500.50000, 
501.00000,1.566544
501.50000, 
502.00000,1.564713
502.50000, 
503.00000,1.563126
503.50000, 
504.00000,1.561508
504.50000, 
505.00000,1.559784
505.50000, 
506.00000,1.558548
506.50000, 
507.00000,1.557220
507.50000, 
508.00000,1.555878
508.50000, 
509.00000,1.554108
509.50000, 
510.00000,1.553116
510.50000, 
511.00000,1.551743
511.50000, 
512.00000,1.549881
512.50000, 
513.00000,1.548431
513.50000, 
514.00000,1.546951
514.50000, 
515.00000,1.545242
515.50000, 
516.00000,1.543579
516.50000, 
517.00000,1.541199
517.50000, 
518.00000,1.539215
518.50000, 
519.00000,1.537247
519.50000, 
520.00000,1.535187
520.50000, 
521.00000,1.533051
521.50000, 
522.00000,1.530319
522.50000, 
523.00000,1.528275
523.50000, 
524.00000,1.525909
524.50000, 
525.00000,1.523499
525.50000, 
526.00000,1.521255
526.50000, 
527.00000,1.518845
527.50000, 
528.00000,1.517014
528.50000, 
529.00000,1.515076
529.50000, 
530.00000,1.513336
530.50000, 
531.00000,1.511368
531.50000, 
532.00000,1.510086
532.50000, 
533.00000,1.508392
533.50000, 
534.00000,1.507248
534.50000, 
535.00000,1.506134
535.50000, 
536.00000,1.503479
536.50000, 
537.00000,1.500259
537.50000, 
538.00000,1.499329
538.50000, 
539.00000,1.498245
539.50000, 
540.00000,1.497360
540.50000, 
541.00000,1.496185
541.50000, 
542.00000,1.494919
542.50000, 
543.00000,1.493958
543.50000, 
544.00000,1.492493
544.50000, 
545.00000,1.490875
545.50000, 
546.00000,1.489136
546.50000, 
547.00000,1.487244
547.50000, 
548.00000,1.484909
548.50000, 
549.00000,1.481903
549.50000, 
550.00000,1.479050
550.50000, 
551.00000,1.475769
551.50000, 
552.00000,1.471985
552.50000, 
553.00000,1.467758
553.50000, 
554.00000,1.463165
554.50000, 
555.00000,1.458359
555.50000, 
556.00000,1.453064
556.50000, 
557.00000,1.447556
557.50000, 
558.00000,1.441696
558.50000, 
559.00000,1.435242
559.50000, 
560.00000,1.428665
560.50000, 
561.00000,1.422028
561.50000, 
562.00000,1.414948
562.50000, 
563.00000,1.407669
563.50000, 
564.00000,1.400055
564.50000, 
565.00000,1.392426
565.50000, 
566.00000,1.384567
566.50000, 
567.00000,1.376846
567.50000, 
568.00000,1.369293
568.50000, 
569.00000,1.361389
569.50000, 
570.00000,1.353317
570.50000, 
571.00000,1.345184
571.50000, 
572.00000,1.337479
572.50000, 
573.00000,1.329910
573.50000, 
574.00000,1.322693
574.50000, 
575.00000,1.315735
575.50000, 
576.00000,1.309113
576.50000, 
577.00000,1.302948
577.50000, 
578.00000,1.297180
578.50000, 
579.00000,1.291626
579.50000, 
580.00000,1.286560
580.50000, 
581.00000,1.282166
581.50000, 
582.00000,1.277863
582.50000, 
583.00000,1.274185
583.50000, 
584.00000,1.270813
584.50000, 
585.00000,1.267715
585.50000, 
586.00000,1.264648
586.50000, 
587.00000,1.262070
587.50000, 
588.00000,1.259674
588.50000, 
589.00000,1.257278
589.50000, 
590.00000,1.255234
590.50000, 
591.00000,1.253128
591.50000, 
592.00000,1.251083
592.50000, 
593.00000,1.248627
593.50000, 
594.00000,1.246170
594.50000, 
595.00000,1.243469
595.50000, 
596.00000,1.240555
596.50000, 
597.00000,1.237045
597.50000, 
598.00000,1.233185
598.50000, 
599.00000,1.228851
599.50000, 
600.00000,1.224106
600.50000, 
601.00000,1.218536
601.50000, 
602.00000,1.212677
602.50000, 
603.00000,1.206528
603.50000, 
604.00000,1.199585
604.50000, 
605.00000,1.192245
605.50000, 
606.00000,1.184464
606.50000, 
607.00000,1.175919
607.50000, 
608.00000,1.166977
608.50000, 
609.00000,1.157471
609.50000, 
610.00000,1.147369
610.50000, 
611.00000,1.137161
611.50000, 
612.00000,1.126862
612.50000, 
613.00000,1.116043
613.50000, 
614.00000,1.104950
614.50000, 
615.00000,1.093704
615.50000, 
616.00000,1.081879
616.50000, 
617.00000,1.069534
617.50000, 
618.00000,1.056885
618.50000, 
619.00000,1.044037
619.50000, 
620.00000,1.031250
620.50000, 
621.00000,1.018814
621.50000, 
622.00000,1.006058
622.50000, 
623.00000,0.993469
623.50000, 
624.00000,0.981018
624.50000, 
625.00000,0.968140
625.50000, 
626.00000,0.955246
626.50000, 
627.00000,0.941727
627.50000, 
628.00000,0.926605
628.50000, 
629.00000,0.908356
629.50000, 
630.00000,0.901031
630.50000, 
631.00000,0.905914
631.50000, 
632.00000,0.914734
632.50000, 
633.00000,0.927704
633.50000, 
634.00000,0.944901
634.50000, 
635.00000,0.966293
635.50000, 
636.00000,0.989624
636.50000, 
637.00000,1.014618
637.50000, 
638.00000,1.037567
638.50000, 
639.00000,1.056595
639.50000, 
640.00000,1.069290
640.50000, 
641.00000,1.075516
641.50000, 
642.00000,1.074951
642.50000, 
643.00000,1.068451
643.50000, 
644.00000,1.057571
644.50000, 
645.00000,1.043808
645.50000, 
646.00000,1.028992
646.50000, 
647.00000,1.013351
647.50000, 
648.00000,0.998260
648.50000, 
649.00000,0.983536
649.50000, 
650.00000,0.970001
650.50000, 
651.00000,0.957626
651.50000, 
652.00000,0.946152
652.50000, 
653.00000,0.935837
653.50000, 
654.00000,0.926193
654.50000, 
655.00000,0.917038
655.50000, 
656.00000,0.908676
656.50000, 
657.00000,0.901215
657.50000, 
658.00000,0.894165
658.50000, 
659.00000,0.887741
659.50000, 
660.00000,0.881790
660.50000, 
661.00000,0.876175
661.50000, 
662.00000,0.871155
662.50000, 
663.00000,0.866272
663.50000, 
664.00000,0.861618
664.50000, 
665.00000,0.857483
665.50000, 
666.00000,0.853256
666.50000, 
667.00000,0.849243
667.50000, 
668.00000,0.845566
668.50000, 
669.00000,0.842194
669.50000, 
670.00000,0.838776
670.50000, 
671.00000,0.835724
671.50000, 
672.00000,0.832794
672.50000, 
673.00000,0.830139
673.50000, 
674.00000,0.827454
674.50000, 
675.00000,0.824936
675.50000, 
676.00000,0.822540
676.50000, 
677.00000,0.820297
677.50000, 
678.00000,0.818192
678.50000, 
679.00000,0.816238
679.50000, 
680.00000,0.814224
680.50000, 
681.00000,0.812332
681.50000, 
682.00000,0.810547
682.50000, 
683.00000,0.808899
683.50000, 
684.00000,0.807144
684.50000, 
685.00000,0.805557
685.50000, 
686.00000,0.803833
686.50000, 
687.00000,0.802414
687.50000, 
688.00000,0.800919
688.50000, 
689.00000,0.799561
689.50000, 
690.00000,0.798080
690.50000, 
691.00000,0.796692
691.50000, 
692.00000,0.795319
692.50000, 
693.00000,0.794083
693.50000, 
694.00000,0.792755
694.50000, 
695.00000,0.791550
695.50000, 
696.00000,0.790192
696.50000, 
697.00000,0.789017
697.50000, 
698.00000,0.787888
698.50000, 
699.00000,0.786743
699.50000, 
700.00000,0.785782
700.50000, 
701.00000,0.784653
701.50000, 
702.00000,0.783524
702.50000, 
703.00000,0.782501
703.50000, 
704.00000,0.781555
704.50000, 
705.00000,0.780579
705.50000, 
706.00000,0.779633
706.50000, 
707.00000,0.778610
707.50000, 
708.00000,0.777588
708.50000, 
709.00000,0.776825
709.50000, 
710.00000,0.776001
710.50000, 
711.00000,0.775177
711.50000, 
712.00000,0.774139
712.50000, 
713.00000,0.773224
713.50000, 
714.00000,0.772369
714.50000, 
715.00000,0.771591
715.50000, 
716.00000,0.770813
716.50000, 
717.00000,0.769928
717.50000, 
718.00000,0.769119
718.50000, 
719.00000,0.768219
719.50000, 
720.00000,0.767487
720.50000, 
721.00000,0.766693
721.50000, 
722.00000,0.765991
722.50000, 
723.00000,0.765198
723.50000, 
724.00000,0.764496
724.50000, 
725.00000,0.763763
725.50000, 
726.00000,0.763168
726.50000, 
727.00000,0.762589
727.50000, 
728.00000,0.761749
728.50000, 
729.00000,0.761200
729.50000, 
730.00000,0.760483
730.50000, 
731.00000,0.759949
731.50000, 
732.00000,0.759384
732.50000, 
733.00000,0.758743
733.50000, 
734.00000,0.758255
734.50000, 
735.00000,0.757446
735.50000, 
736.00000,0.757004
736.50000, 
737.00000,0.756439
737.50000, 
738.00000,0.755814
738.50000, 
739.00000,0.755341
739.50000, 
740.00000,0.754639
740.50000, 
741.00000,0.754089
741.50000, 
742.00000,0.753418
742.50000, 
743.00000,0.752899
743.50000, 
744.00000,0.752396
744.50000, 
745.00000,0.751755
745.50000, 
746.00000,0.751358
746.50000, 
747.00000,0.750793
747.50000, 
748.00000,0.750366
748.50000, 
749.00000,0.749985
749.50000, 
750.00000,0.749542
750.50000, 
751.00000,0.749146
751.50000, 
752.00000,0.748611
752.50000, 
753.00000,0.748169
753.50000, 
754.00000,0.747787
754.50000, 
755.00000,0.747269
755.50000, 
756.00000,0.746872
756.50000, 
757.00000,0.746597
757.50000, 
758.00000,0.746109
758.50000, 
759.00000,0.745834
759.50000, 
760.00000,0.745377
760.50000, 
761.00000,0.745087
761.50000, 
762.00000,0.744675
762.50000, 
763.00000,0.744125
763.50000, 
764.00000,0.743912
764.50000, 
765.00000,0.743408
765.50000, 
766.00000,0.743027
766.50000, 
767.00000,0.742691
767.50000, 
768.00000,0.742218
768.50000, 
769.00000,0.741898
769.50000, 
770.00000,0.741562
770.50000, 
771.00000,0.741165
771.50000, 
772.00000,0.740845
772.50000, 
773.00000,0.740326
773.50000, 
774.00000,0.739944
774.50000, 
775.00000,0.739655
775.50000, 
776.00000,0.739151
776.50000, 
777.00000,0.738876
777.50000, 
778.00000,0.738342
778.50000, 
779.00000,0.737808
779.50000, 
780.00000,0.737457
780.50000, 
781.00000,0.736877
781.50000, 
782.00000,0.736374
782.50000, 
783.00000,0.735977
783.50000, 
784.00000,0.735199
784.50000, 
785.00000,0.734634
785.50000, 
786.00000,0.733841
786.50000, 
787.00000,0.733063
787.50000, 
788.00000,0.732407
788.50000, 
789.00000,0.731552
789.50000, 
790.00000,0.730621
790.50000, 
791.00000,0.729828
791.50000, 
792.00000,0.728668
792.50000, 
793.00000,0.727722
793.50000, 
794.00000,0.726593
794.50000, 
795.00000,0.725296
795.50000, 
796.00000,0.724243
796.50000, 
797.00000,0.723053
797.50000, 
798.00000,0.721390
798.50000, 
799.00000,0.719955
799.50000, 
800.00000,0.718323
800.50000, 
801.00000,0.716614
801.50000, 
802.00000,0.714874
802.50000, 
803.00000,0.712952
803.50000, 
804.00000,0.710693
804.50000, 
805.00000,0.708679
805.50000, 
806.00000,0.706329
806.50000, 
807.00000,0.704010
807.50000, 
808.00000,0.701401
808.50000, 
809.00000,0.698669
809.50000, 
810.00000,0.695770
810.50000, 
811.00000,0.692886
811.50000, 
812.00000,0.689560
812.50000, 
813.00000,0.686447
813.50000, 
814.00000,0.683105
814.50000, 
815.00000,0.679703
815.50000, 
816.00000,0.676117
816.50000, 
817.00000,0.672562
817.50000, 
818.00000,0.668701
818.50000, 
819.00000,0.664871
819.50000, 
820.00000,0.660934
820.50000, 
821.00000,0.656876
821.50000, 
822.00000,0.652893
822.50000, 
823.00000,0.648514
823.50000, 
824.00000,0.644058
824.50000, 
825.00000,0.639786
825.50000, 
826.00000,0.635406
826.50000, 
827.00000,0.630447
827.50000, 
828.00000,0.625702
828.50000, 
829.00000,0.621002
829.50000, 
830.00000,0.616119
830.50000, 
831.00000,0.610886
831.50000, 
832.00000,0.605957
832.50000, 
833.00000,0.600677
833.50000, 
834.00000,0.595108
834.50000, 
835.00000,0.590088
835.50000, 
836.00000,0.584824
836.50000, 
837.00000,0.579391
837.50000, 
838.00000,0.574310
838.50000, 
839.00000,0.568893
839.50000, 
840.00000,0.563293
840.50000, 
841.00000,0.558243
841.50000, 
842.00000,0.552917
842.50000, 
843.00000,0.547394
843.50000, 
844.00000,0.542267
844.50000, 
845.00000,0.537048
845.50000, 
846.00000,0.531555
846.50000, 
847.00000,0.526230
847.50000, 
848.00000,0.521088
848.50000, 
849.00000,0.515274
849.50000, 
850.00000,0.509552
850.50000, 
851.00000,0.504364
851.50000, 
852.00000,0.498703
852.50000, 
853.00000,0.493118
853.50000, 
854.00000,0.487839
854.50000, 
855.00000,0.482407
855.50000, 
856.00000,0.477020
856.50000, 
857.00000,0.471985
857.50000, 
858.00000,0.466553
858.50000, 
859.00000,0.461288
859.50000, 
860.00000,0.456314
860.50000, 
861.00000,0.451416
861.50000, 
862.00000,0.446518
862.50000, 
863.00000,0.441879
863.50000, 
864.00000,0.437302
864.50000, 
865.00000,0.432602
865.50000, 
866.00000,0.427994
866.50000, 
867.00000,0.423721
867.50000, 
868.00000,0.419128
868.50000, 
869.00000,0.414703
869.50000, 
870.00000,0.410538
870.50000, 
871.00000,0.406204
871.50000, 
872.00000,0.401871
872.50000, 
873.00000,0.397812
873.50000, 
874.00000,0.393875
874.50000, 
875.00000,0.389572
875.50000, 
876.00000,0.385437
876.50000, 
877.00000,0.381592
877.50000, 
878.00000,0.377594
878.50000, 
879.00000,0.373672
879.50000, 
880.00000,0.370270
880.50000, 
881.00000,0.366745
881.50000, 
882.00000,0.363281
882.50000, 
883.00000,0.359741
883.50000, 
884.00000,0.356506
884.50000, 
885.00000,0.353180
885.50000, 
886.00000,0.349884
886.50000, 
887.00000,0.346939
887.50000, 
888.00000,0.343994
888.50000, 
889.00000,0.340912
889.50000, 
890.00000,0.337845
890.50000, 
891.00000,0.335129
891.50000, 
892.00000,0.332321
892.50000, 
893.00000,0.329315
893.50000, 
894.00000,0.326614
894.50000, 
895.00000,0.324142
895.50000, 
896.00000,0.321457
896.50000, 
897.00000,0.318817
897.50000, 
898.00000,0.316452
898.50000, 
899.00000,0.314163
899.50000, 
900.00000,0.312088
900.50000, 
901.00000, 
901.50000, 
902.00000, 
902.50000, 
903.00000, 
903.50000, 
904.00000, 
904.50000, 
905.00000, 
905.50000, 
906.00000, 
906.50000, 
907.00000, 
907.50000, 
908.00000, 
908.50000, 
909.00000, 
909.50000, 
910.00000, 
910.50000, 
911.00000, 
911.50000, 
912.00000, 
912.50000, 
913.00000, 
913.50000, 
914.00000, 
914.50000, 
915.00000, 
915.50000, 
916.00000, 
916.50000, 
917.00000, 
917.50000, 
918.00000, 
918.50000, 
919.00000, 
919.50000, 
920.00000, 
920.50000, 
921.00000, 
921.50000, 
922.00000, 
922.50000, 
923.00000, 
923.50000, 
924.00000, 
924.50000, 
925.00000, 
925.50000, 
926.00000, 
926.50000, 
927.00000, 
927.50000, 
928.00000, 
928.50000, 
929.00000, 
929.50000, 
930.00000, 
930.50000, 
931.00000, 
931.50000, 
932.00000, 
932.50000, 
933.00000, 
933.50000, 
934.00000, 
934.50000, 
935.00000, 
935.50000, 
936.00000, 
936.50000, 
937.00000, 
937.50000, 
938.00000, 
938.50000, 
939.00000, 
939.50000, 
940.00000, 
940.50000, 
941.00000, 
941.50000, 
942.00000, 
942.50000, 
943.00000, 
943.50000, 
944.00000, 
944.50000, 
945.00000, 
945.50000, 
946.00000, 
946.50000, 
947.00000, 
947.50000, 
948.00000, 
948.50000, 
949.00000, 
949.50000, 
950.00000, 
950.50000, 
951.00000, 
951.50000, 
952.00000, 
952.50000, 
953.00000, 
953.50000, 
954.00000, 
954.50000, 
955.00000, 
955.50000, 
956.00000, 
956.50000, 
957.00000, 
957.50000, 
958.00000, 
958.50000, 
959.00000, 
959.50000, 
960.00000, 
960.50000, 
961.00000, 
961.50000, 
962.00000, 
962.50000, 
963.00000, 
963.50000, 
964.00000, 
964.50000, 
965.00000, 
965.50000, 
966.00000, 
966.50000, 
967.00000, 
967.50000, 
968.00000, 
968.50000, 
969.00000, 
969.50000, 
970.00000, 
970.50000, 
971.00000, 
971.50000, 
972.00000, 
972.50000, 
973.00000, 
973.50000, 
974.00000, 
974.50000, 
975.00000, 
975.50000, 
976.00000, 
976.50000, 
977.00000, 
977.50000, 
978.00000, 
978.50000, 
979.00000, 
979.50000, 
980.00000, 
980.50000, 
981.00000, 
981.50000, 
982.00000, 
982.50000, 
983.00000, 
983.50000, 
984.00000, 
984.50000, 
985.00000, 
985.50000, 
986.00000, 
986.50000, 
987.00000, 
987.50000, 
988.00000, 
988.50000, 
989.00000, 
989.50000, 
990.00000, 
990.50000, 
991.00000, 
991.50000, 
992.00000, 
992.50000, 
993.00000, 
993.50000, 
994.00000, 
994.50000, 
995.00000, 
995.50000, 
996.00000, 
996.50000, 
997.00000, 
997.50000, 
998.00000, 
998.50000, 
999.00000, 
999.50000, 
1000.00000, 
1000.50000, 
1001.00000, 
1001.50000, 
1002.00000, 
1002.50000, 
1003.00000, 
1003.50000, 
1004.00000, 
1004.50000, 
1005.00000, 
1005.50000, 
1006.00000, 
1006.50000, 
1007.00000, 
1007.50000, 
1008.00000, 
1008.50000, 
1009.00000, 
1009.50000, 
1010.00000, 
1010.50000, 
1011.00000, 
1011.50000, 
1012.00000, 
1012.50000, 
1013.00000, 
1013.50000, 
1014.00000, 
1014.50000, 
1015.00000, 
1015.50000, 
1016.00000, 
1016.50000, 
1017.00000, 
1017.50000, 
1018.00000, 
1018.50000, 
1019.00000, 
1019.50000, 
1020.00000, 
1020.50000, 
1021.00000, 
1021.50000, 
1022.00000, 
1022.50000, 
1023.00000, 
1023.50000, 
1024.00000, 
1024.50000, 
1025.00000, 
1025.50000, 
1026.00000, 
1026.50000, 
1027.00000, 
1027.50000, 
1028.00000, 
1028.50000, 
1029.00000, 
1029.50000, 
1030.00000, 
1030.50000, 
1031.00000, 
1031.50000, 
1032.00000, 
1032.50000, 
1033.00000, 
1033.50000, 
1034.00000, 
1034.50000, 
1035.00000, 
1035.50000, 
1036.00000, 
1036.50000, 
1037.00000, 
1037.50000, 
1038.00000, 
1038.50000, 
1039.00000, 
1039.50000, 
1040.00000, 
1040.50000, 
1041.00000, 
1041.50000, 
1042.00000, 
1042.50000, 
1043.00000, 
1043.50000, 
1044.00000, 
1044.50000, 
1045.00000, 
1045.50000, 
1046.00000, 
1046.50000, 
1047.00000, 
1047.50000, 
1048.00000, 
1048.50000, 
1049.00000, 
1049.50000, 
1050.00000, 
1050.50000, 
1051.00000, 
1051.50000, 
1052.00000, 
1052.50000, 
1053.00000, 
1053.50000, 
1054.00000, 
1054.50000, 
1055.00000, 
1055.50000, 
1056.00000, 
1056.50000, 
1057.00000, 
1057.50000, 
1058.00000, 
1058.50000, 
1059.00000, 
1059.50000, 
1060.00000, 
1060.50000, 
1061.00000, 
1061.50000, 
1062.00000, 
1062.50000, 
1063.00000, 
1063.50000, 
1064.00000, 
1064.50000, 
1065.00000, 
1065.50000, 
1066.00000, 
1066.50000, 
1067.00000, 
1067.50000, 
1068.00000, 
1068.50000, 
1069.00000, 
1069.50000, 
1070.00000, 
1070.50000, 
1071.00000, 
1071.50000, 
1072.00000, 
1072.50000, 
1073.00000, 
1073.50000, 
1074.00000, 
1074.50000, 
1075.00000, 
1075.50000, 
1076.00000, 
1076.50000, 
1077.00000, 
1077.50000, 
1078.00000, 
1078.50000, 
1079.00000, 
1079.50000, 
1080.00000, 
1080.50000, 
1081.00000, 
1081.50000, 
1082.00000, 
1082.50000, 
1083.00000, 
1083.50000, 
1084.00000, 
1084.50000, 
1085.00000, 
1085.50000, 
1086.00000, 
1086.50000, 
1087.00000, 
1087.50000, 
1088.00000, 
1088.50000, 
1089.00000, 
1089.50000, 
1090.00000, 
1090.50000, 
1091.00000, 
1091.50000, 
1092.00000, 
1092.50000, 
1093.00000, 
1093.50000, 
1094.00000, 
1094.50000, 
1095.00000, 
1095.50000, 
1096.00000, 
1096.50000, 
1097.00000, 
1097.50000, 
1098.00000, 
1098.50000, 
1099.00000, 
1099.50000, 
1100.00000, 
