"20% H - RawData"
"Wavelength nm.","Abs."
300.00000,4.000000
300.50000, 
301.00000,3.904541
301.50000, 
302.00000,3.909149
302.50000, 
303.00000,4.000000
303.50000, 
304.00000,4.000000
304.50000, 
305.00000,3.994293
305.50000, 
306.00000,4.000000
306.50000, 
307.00000,4.000000
307.50000, 
308.00000,3.996750
308.50000, 
309.00000,3.979980
309.50000, 
310.00000,3.988297
310.50000, 
311.00000,3.926178
311.50000, 
312.00000,3.896500
312.50000, 
313.00000,3.991577
313.50000, 
314.00000,3.927765
314.50000, 
315.00000,3.742065
315.50000, 
316.00000,4.000000
316.50000, 
317.00000,4.000000
317.50000, 
318.00000,3.956985
318.50000, 
319.00000,3.955490
319.50000, 
320.00000,3.958832
320.50000, 
321.00000,3.977554
321.50000, 
322.00000,4.000000
322.50000, 
323.00000,3.978073
323.50000, 
324.00000,4.000000
324.50000, 
325.00000,4.000000
325.50000, 
326.00000,3.973526
326.50000, 
327.00000,3.945328
327.50000, 
328.00000,3.891632
328.50000, 
329.00000,3.997452
329.50000, 
330.00000,4.000000
330.50000, 
331.00000,4.000000
331.50000, 
332.00000,4.000000
332.50000, 
333.00000,4.000000
333.50000, 
334.00000,3.923004
334.50000, 
335.00000,3.927673
335.50000, 
336.00000,3.975098
336.50000, 
337.00000,3.780609
337.50000, 
338.00000,3.966721
338.50000, 
339.00000,3.918060
339.50000, 
340.00000,3.798904
340.50000, 
341.00000,3.910049
341.50000, 
342.00000,4.000000
342.50000, 
343.00000,3.960846
343.50000, 
344.00000,4.000000
344.50000, 
345.00000,3.983093
345.50000, 
346.00000,3.965820
346.50000, 
347.00000,3.970535
347.50000, 
348.00000,3.918427
348.50000, 
349.00000,3.977844
349.50000, 
350.00000,3.952377
350.50000, 
351.00000,4.000000
351.50000, 
352.00000,3.989731
352.50000, 
353.00000,3.932098
353.50000, 
354.00000,3.974777
354.50000, 
355.00000,3.976715
355.50000, 
356.00000,3.920074
356.50000, 
357.00000,3.910355
357.50000, 
358.00000,3.977219
358.50000, 
359.00000,3.978348
359.50000, 
360.00000,3.867065
360.50000, 
361.00000,3.901703
361.50000, 
362.00000,3.971710
362.50000, 
363.00000,3.878967
363.50000, 
364.00000,3.970001
364.50000, 
365.00000,3.979782
365.50000, 
366.00000,3.908020
366.50000, 
367.00000,3.980774
367.50000, 
368.00000,3.993835
368.50000, 
369.00000,3.835571
369.50000, 
370.00000,3.998337
370.50000, 
371.00000,3.933960
371.50000, 
372.00000,3.962753
372.50000, 
373.00000,3.943954
373.50000, 
374.00000,3.850601
374.50000, 
375.00000,3.873779
375.50000, 
376.00000,3.597366
376.50000, 
377.00000,3.436432
377.50000, 
378.00000,3.168976
378.50000, 
379.00000,2.866211
379.50000, 
380.00000,2.682144
380.50000, 
381.00000,2.492096
381.50000, 
382.00000,2.309067
382.50000, 
383.00000,2.139542
383.50000, 
384.00000,1.993607
384.50000, 
385.00000,1.867416
385.50000, 
386.00000,1.751801
386.50000, 
387.00000,1.656326
387.50000, 
388.00000,1.566528
388.50000, 
389.00000,1.484344
389.50000, 
390.00000,1.411575
390.50000, 
391.00000,1.347809
391.50000, 
392.00000,1.292542
392.50000, 
393.00000,1.245193
393.50000, 
394.00000,1.205139
394.50000, 
395.00000,1.173477
395.50000, 
396.00000,1.145477
396.50000, 
397.00000,1.122818
397.50000, 
398.00000,1.105087
398.50000, 
399.00000,1.090897
399.50000, 
400.00000,1.080231
400.50000, 
401.00000,1.072174
401.50000, 
402.00000,1.066498
402.50000, 
403.00000,1.062592
403.50000, 
404.00000,1.060638
404.50000, 
405.00000,1.059540
405.50000, 
406.00000,1.059555
406.50000, 
407.00000,1.060120
407.50000, 
408.00000,1.061310
408.50000, 
409.00000,1.063049
409.50000, 
410.00000,1.065689
410.50000, 
411.00000,1.068329
411.50000, 
412.00000,1.071701
412.50000, 
413.00000,1.075378
413.50000, 
414.00000,1.078506
414.50000, 
415.00000,1.082581
415.50000, 
416.00000,1.085861
416.50000, 
417.00000,1.090378
417.50000, 
418.00000,1.094925
418.50000, 
419.00000,1.099457
419.50000, 
420.00000,1.104111
420.50000, 
421.00000,1.109024
421.50000, 
422.00000,1.114151
422.50000, 
423.00000,1.119934
423.50000, 
424.00000,1.125275
424.50000, 
425.00000,1.130844
425.50000, 
426.00000,1.136734
426.50000, 
427.00000,1.141937
427.50000, 
428.00000,1.147858
428.50000, 
429.00000,1.153625
429.50000, 
430.00000,1.159653
430.50000, 
431.00000,1.165482
431.50000, 
432.00000,1.171677
432.50000, 
433.00000,1.177994
433.50000, 
434.00000,1.184128
434.50000, 
435.00000,1.189911
435.50000, 
436.00000,1.195908
436.50000, 
437.00000,1.201752
437.50000, 
438.00000,1.208038
438.50000, 
439.00000,1.214508
439.50000, 
440.00000,1.220932
440.50000, 
441.00000,1.226868
441.50000, 
442.00000,1.233124
442.50000, 
443.00000,1.238922
443.50000, 
444.00000,1.245331
444.50000, 
445.00000,1.251907
445.50000, 
446.00000,1.257828
446.50000, 
447.00000,1.264481
447.50000, 
448.00000,1.271240
448.50000, 
449.00000,1.277924
449.50000, 
450.00000,1.284393
450.50000, 
451.00000,1.290955
451.50000, 
452.00000,1.297760
452.50000, 
453.00000,1.304199
453.50000, 
454.00000,1.310867
454.50000, 
455.00000,1.317459
455.50000, 
456.00000,1.324127
456.50000, 
457.00000,1.331039
457.50000, 
458.00000,1.337738
458.50000, 
459.00000,1.344543
459.50000, 
460.00000,1.351151
460.50000, 
461.00000,1.358246
461.50000, 
462.00000,1.365189
462.50000, 
463.00000,1.372070
463.50000, 
464.00000,1.378952
464.50000, 
465.00000,1.386093
465.50000, 
466.00000,1.394180
466.50000, 
467.00000,1.402695
467.50000, 
468.00000,1.412399
468.50000, 
469.00000,1.419296
469.50000, 
470.00000,1.423981
470.50000, 
471.00000,1.427933
471.50000, 
472.00000,1.430939
472.50000, 
473.00000,1.433289
473.50000, 
474.00000,1.435135
474.50000, 
475.00000,1.435730
475.50000, 
476.00000,1.435089
476.50000, 
477.00000,1.434036
477.50000, 
478.00000,1.431747
478.50000, 
479.00000,1.428482
479.50000, 
480.00000,1.425110
480.50000, 
481.00000,1.421387
481.50000, 
482.00000,1.417191
482.50000, 
483.00000,1.413651
483.50000, 
484.00000,1.410721
484.50000, 
485.00000,1.408905
485.50000, 
486.00000,1.408325
486.50000, 
487.00000,1.409210
487.50000, 
488.00000,1.410873
488.50000, 
489.00000,1.413666
489.50000, 
490.00000,1.417526
490.50000, 
491.00000,1.422226
491.50000, 
492.00000,1.427536
492.50000, 
493.00000,1.433258
493.50000, 
494.00000,1.438889
494.50000, 
495.00000,1.444794
495.50000, 
496.00000,1.451279
496.50000, 
497.00000,1.457260
497.50000, 
498.00000,1.463531
498.50000, 
499.00000,1.469162
499.50000, 
500.00000,1.475052
500.50000, 
501.00000,1.480484
501.50000, 
502.00000,1.485931
502.50000, 
503.00000,1.490829
503.50000, 
504.00000,1.495300
504.50000, 
505.00000,1.499466
505.50000, 
506.00000,1.503265
506.50000, 
507.00000,1.506760
507.50000, 
508.00000,1.509933
508.50000, 
509.00000,1.512604
509.50000, 
510.00000,1.515579
510.50000, 
511.00000,1.517395
511.50000, 
512.00000,1.519531
512.50000, 
513.00000,1.520782
513.50000, 
514.00000,1.522369
514.50000, 
515.00000,1.522873
515.50000, 
516.00000,1.523499
516.50000, 
517.00000,1.523880
517.50000, 
518.00000,1.524414
518.50000, 
519.00000,1.524170
519.50000, 
520.00000,1.523956
520.50000, 
521.00000,1.523560
521.50000, 
522.00000,1.523163
522.50000, 
523.00000,1.522095
523.50000, 
524.00000,1.521225
524.50000, 
525.00000,1.519974
525.50000, 
526.00000,1.519180
526.50000, 
527.00000,1.518082
527.50000, 
528.00000,1.517029
528.50000, 
529.00000,1.516022
529.50000, 
530.00000,1.514847
530.50000, 
531.00000,1.513626
531.50000, 
532.00000,1.512726
532.50000, 
533.00000,1.511703
533.50000, 
534.00000,1.510712
534.50000, 
535.00000,1.510101
535.50000, 
536.00000,1.508148
536.50000, 
537.00000,1.505600
537.50000, 
538.00000,1.504623
538.50000, 
539.00000,1.503494
539.50000, 
540.00000,1.502426
540.50000, 
541.00000,1.501282
541.50000, 
542.00000,1.499664
542.50000, 
543.00000,1.498047
543.50000, 
544.00000,1.496063
544.50000, 
545.00000,1.493912
545.50000, 
546.00000,1.491531
546.50000, 
547.00000,1.488632
547.50000, 
548.00000,1.485291
548.50000, 
549.00000,1.481476
549.50000, 
550.00000,1.477249
550.50000, 
551.00000,1.472702
551.50000, 
552.00000,1.467621
552.50000, 
553.00000,1.462051
553.50000, 
554.00000,1.455856
554.50000, 
555.00000,1.449722
555.50000, 
556.00000,1.442703
556.50000, 
557.00000,1.435608
557.50000, 
558.00000,1.427841
558.50000, 
559.00000,1.419540
559.50000, 
560.00000,1.411270
560.50000, 
561.00000,1.402496
561.50000, 
562.00000,1.393402
562.50000, 
563.00000,1.384033
563.50000, 
564.00000,1.374481
564.50000, 
565.00000,1.364975
565.50000, 
566.00000,1.355026
566.50000, 
567.00000,1.345276
567.50000, 
568.00000,1.335663
568.50000, 
569.00000,1.325409
569.50000, 
570.00000,1.314926
570.50000, 
571.00000,1.304688
571.50000, 
572.00000,1.294678
572.50000, 
573.00000,1.284805
573.50000, 
574.00000,1.275452
574.50000, 
575.00000,1.266357
575.50000, 
576.00000,1.257797
576.50000, 
577.00000,1.249390
577.50000, 
578.00000,1.241592
578.50000, 
579.00000,1.233948
579.50000, 
580.00000,1.226868
580.50000, 
581.00000,1.220596
581.50000, 
582.00000,1.214401
582.50000, 
583.00000,1.208832
583.50000, 
584.00000,1.203568
584.50000, 
585.00000,1.198441
585.50000, 
586.00000,1.193512
586.50000, 
587.00000,1.189056
587.50000, 
588.00000,1.184631
588.50000, 
589.00000,1.180344
589.50000, 
590.00000,1.176300
590.50000, 
591.00000,1.172043
591.50000, 
592.00000,1.167938
592.50000, 
593.00000,1.163116
593.50000, 
594.00000,1.158463
594.50000, 
595.00000,1.153244
595.50000, 
596.00000,1.147705
596.50000, 
597.00000,1.141602
597.50000, 
598.00000,1.135223
598.50000, 
599.00000,1.127991
599.50000, 
600.00000,1.120117
600.50000, 
601.00000,1.111404
601.50000, 
602.00000,1.102234
602.50000, 
603.00000,1.092636
603.50000, 
604.00000,1.082260
604.50000, 
605.00000,1.071503
605.50000, 
606.00000,1.060211
606.50000, 
607.00000,1.047836
607.50000, 
608.00000,1.034882
608.50000, 
609.00000,1.021347
609.50000, 
610.00000,1.007309
610.50000, 
611.00000,0.992996
611.50000, 
612.00000,0.978668
612.50000, 
613.00000,0.963638
613.50000, 
614.00000,0.948395
614.50000, 
615.00000,0.933090
615.50000, 
616.00000,0.917023
616.50000, 
617.00000,0.900574
617.50000, 
618.00000,0.883789
618.50000, 
619.00000,0.866745
619.50000, 
620.00000,0.849945
620.50000, 
621.00000,0.833847
621.50000, 
622.00000,0.817673
622.50000, 
623.00000,0.802078
623.50000, 
624.00000,0.787109
624.50000, 
625.00000,0.772568
625.50000, 
626.00000,0.758820
626.50000, 
627.00000,0.746414
627.50000, 
628.00000,0.736053
628.50000, 
629.00000,0.728119
629.50000, 
630.00000,0.713959
630.50000, 
631.00000,0.694016
631.50000, 
632.00000,0.673050
632.50000, 
633.00000,0.651184
633.50000, 
634.00000,0.628677
634.50000, 
635.00000,0.606186
635.50000, 
636.00000,0.585373
636.50000, 
637.00000,0.565521
637.50000, 
638.00000,0.548080
638.50000, 
639.00000,0.533081
639.50000, 
640.00000,0.521286
640.50000, 
641.00000,0.511917
641.50000, 
642.00000,0.504669
642.50000, 
643.00000,0.499619
643.50000, 
644.00000,0.496048
644.50000, 
645.00000,0.493683
645.50000, 
646.00000,0.492340
646.50000, 
647.00000,0.491608
647.50000, 
648.00000,0.491180
648.50000, 
649.00000,0.490936
649.50000, 
650.00000,0.490982
650.50000, 
651.00000,0.490936
651.50000, 
652.00000,0.491089
652.50000, 
653.00000,0.491028
653.50000, 
654.00000,0.491196
654.50000, 
655.00000,0.491135
655.50000, 
656.00000,0.491119
656.50000, 
657.00000,0.490921
657.50000, 
658.00000,0.490845
658.50000, 
659.00000,0.490494
659.50000, 
660.00000,0.490341
660.50000, 
661.00000,0.490036
661.50000, 
662.00000,0.489761
662.50000, 
663.00000,0.489349
663.50000, 
664.00000,0.489059
664.50000, 
665.00000,0.488617
665.50000, 
666.00000,0.488220
666.50000, 
667.00000,0.487656
667.50000, 
668.00000,0.487061
668.50000, 
669.00000,0.486572
669.50000, 
670.00000,0.485947
670.50000, 
671.00000,0.485336
671.50000, 
672.00000,0.484695
672.50000, 
673.00000,0.484222
673.50000, 
674.00000,0.483429
674.50000, 
675.00000,0.482880
675.50000, 
676.00000,0.482162
676.50000, 
677.00000,0.481537
677.50000, 
678.00000,0.480759
678.50000, 
679.00000,0.480179
679.50000, 
680.00000,0.479233
680.50000, 
681.00000,0.478622
681.50000, 
682.00000,0.477783
682.50000, 
683.00000,0.477127
683.50000, 
684.00000,0.476273
684.50000, 
685.00000,0.475525
685.50000, 
686.00000,0.474686
686.50000, 
687.00000,0.473862
687.50000, 
688.00000,0.473099
688.50000, 
689.00000,0.472260
689.50000, 
690.00000,0.471512
690.50000, 
691.00000,0.470474
691.50000, 
692.00000,0.469757
692.50000, 
693.00000,0.468628
693.50000, 
694.00000,0.467972
694.50000, 
695.00000,0.466904
695.50000, 
696.00000,0.466187
696.50000, 
697.00000,0.465057
697.50000, 
698.00000,0.464325
698.50000, 
699.00000,0.463196
699.50000, 
700.00000,0.462601
700.50000, 
701.00000,0.461502
701.50000, 
702.00000,0.460602
702.50000, 
703.00000,0.459641
703.50000, 
704.00000,0.458679
704.50000, 
705.00000,0.457901
705.50000, 
706.00000,0.456741
706.50000, 
707.00000,0.456100
707.50000, 
708.00000,0.454849
708.50000, 
709.00000,0.454254
709.50000, 
710.00000,0.453186
710.50000, 
711.00000,0.452377
711.50000, 
712.00000,0.451324
712.50000, 
713.00000,0.450302
713.50000, 
714.00000,0.449356
714.50000, 
715.00000,0.448166
715.50000, 
716.00000,0.447464
716.50000, 
717.00000,0.446213
717.50000, 
718.00000,0.445557
718.50000, 
719.00000,0.444260
719.50000, 
720.00000,0.443451
720.50000, 
721.00000,0.442276
721.50000, 
722.00000,0.441376
722.50000, 
723.00000,0.440414
723.50000, 
724.00000,0.439423
724.50000, 
725.00000,0.438629
725.50000, 
726.00000,0.437363
726.50000, 
727.00000,0.436768
727.50000, 
728.00000,0.435486
728.50000, 
729.00000,0.434753
729.50000, 
730.00000,0.433853
730.50000, 
731.00000,0.432724
731.50000, 
732.00000,0.432114
732.50000, 
733.00000,0.430847
733.50000, 
734.00000,0.430237
734.50000, 
735.00000,0.429123
735.50000, 
736.00000,0.428207
736.50000, 
737.00000,0.427490
737.50000, 
738.00000,0.426193
738.50000, 
739.00000,0.425674
739.50000, 
740.00000,0.424484
740.50000, 
741.00000,0.423569
741.50000, 
742.00000,0.422623
742.50000, 
743.00000,0.421432
743.50000, 
744.00000,0.420792
744.50000, 
745.00000,0.419449
745.50000, 
746.00000,0.418869
746.50000, 
747.00000,0.417999
747.50000, 
748.00000,0.416931
748.50000, 
749.00000,0.416321
749.50000, 
750.00000,0.415192
750.50000, 
751.00000,0.414398
751.50000, 
752.00000,0.413696
752.50000, 
753.00000,0.412476
753.50000, 
754.00000,0.411972
754.50000, 
755.00000,0.410782
755.50000, 
756.00000,0.410049
756.50000, 
757.00000,0.409454
757.50000, 
758.00000,0.408142
758.50000, 
759.00000,0.407700
759.50000, 
760.00000,0.406586
760.50000, 
761.00000,0.405685
761.50000, 
762.00000,0.404999
762.50000, 
763.00000,0.403717
763.50000, 
764.00000,0.403275
764.50000, 
765.00000,0.402145
765.50000, 
766.00000,0.401352
766.50000, 
767.00000,0.400711
767.50000, 
768.00000,0.399475
768.50000, 
769.00000,0.398895
769.50000, 
770.00000,0.397995
770.50000, 
771.00000,0.397079
771.50000, 
772.00000,0.396622
772.50000, 
773.00000,0.395462
773.50000, 
774.00000,0.394867
774.50000, 
775.00000,0.394196
775.50000, 
776.00000,0.393021
776.50000, 
777.00000,0.392715
777.50000, 
778.00000,0.391663
778.50000, 
779.00000,0.390808
779.50000, 
780.00000,0.390411
780.50000, 
781.00000,0.389343
781.50000, 
782.00000,0.388504
782.50000, 
783.00000,0.388077
783.50000, 
784.00000,0.386765
784.50000, 
785.00000,0.386398
785.50000, 
786.00000,0.385361
786.50000, 
787.00000,0.384415
787.50000, 
788.00000,0.384003
788.50000, 
789.00000,0.382950
789.50000, 
790.00000,0.382065
790.50000, 
791.00000,0.381592
791.50000, 
792.00000,0.380249
792.50000, 
793.00000,0.379761
793.50000, 
794.00000,0.378876
794.50000, 
795.00000,0.377716
795.50000, 
796.00000,0.377167
796.50000, 
797.00000,0.376465
797.50000, 
798.00000,0.375046
798.50000, 
799.00000,0.374695
799.50000, 
800.00000,0.373566
800.50000, 
801.00000,0.372543
801.50000, 
802.00000,0.371857
802.50000, 
803.00000,0.370773
803.50000, 
804.00000,0.369446
804.50000, 
805.00000,0.368942
805.50000, 
806.00000,0.367447
806.50000, 
807.00000,0.366669
807.50000, 
808.00000,0.365646
808.50000, 
809.00000,0.364380
809.50000, 
810.00000,0.363144
810.50000, 
811.00000,0.362259
811.50000, 
812.00000,0.360535
812.50000, 
813.00000,0.359741
813.50000, 
814.00000,0.358383
814.50000, 
815.00000,0.356995
815.50000, 
816.00000,0.355850
816.50000, 
817.00000,0.354691
817.50000, 
818.00000,0.352997
818.50000, 
819.00000,0.351990
819.50000, 
820.00000,0.350601
820.50000, 
821.00000,0.349045
821.50000, 
822.00000,0.348022
822.50000, 
823.00000,0.346497
823.50000, 
824.00000,0.344894
824.50000, 
825.00000,0.343613
825.50000, 
826.00000,0.342407
826.50000, 
827.00000,0.340393
827.50000, 
828.00000,0.339294
828.50000, 
829.00000,0.337646
829.50000, 
830.00000,0.335922
830.50000, 
831.00000,0.334366
831.50000, 
832.00000,0.333023
832.50000, 
833.00000,0.331024
833.50000, 
834.00000,0.329483
834.50000, 
835.00000,0.328079
835.50000, 
836.00000,0.326019
836.50000, 
837.00000,0.324554
837.50000, 
838.00000,0.322937
838.50000, 
839.00000,0.321198
839.50000, 
840.00000,0.319336
840.50000, 
841.00000,0.318130
841.50000, 
842.00000,0.316101
842.50000, 
843.00000,0.314301
843.50000, 
844.00000,0.313034
844.50000, 
845.00000,0.311066
845.50000, 
846.00000,0.309326
846.50000, 
847.00000,0.307770
847.50000, 
848.00000,0.306290
848.50000, 
849.00000,0.304077
849.50000, 
850.00000,0.302521
850.50000, 
851.00000,0.300873
851.50000, 
852.00000,0.298813
852.50000, 
853.00000,0.297211
853.50000, 
854.00000,0.295349
854.50000, 
855.00000,0.293564
855.50000, 
856.00000,0.291809
856.50000, 
857.00000,0.290482
857.50000, 
858.00000,0.288330
858.50000, 
859.00000,0.286713
859.50000, 
860.00000,0.285141
860.50000, 
861.00000,0.283386
861.50000, 
862.00000,0.281784
862.50000, 
863.00000,0.280304
863.50000, 
864.00000,0.278961
864.50000, 
865.00000,0.277008
865.50000, 
866.00000,0.275742
866.50000, 
867.00000,0.274399
867.50000, 
868.00000,0.272568
868.50000, 
869.00000,0.271179
869.50000, 
870.00000,0.269806
870.50000, 
871.00000,0.268433
871.50000, 
872.00000,0.266800
872.50000, 
873.00000,0.265549
873.50000, 
874.00000,0.264328
874.50000, 
875.00000,0.262573
875.50000, 
876.00000,0.261383
876.50000, 
877.00000,0.259918
877.50000, 
878.00000,0.258545
878.50000, 
879.00000,0.257217
879.50000, 
880.00000,0.256012
880.50000, 
881.00000,0.254929
881.50000, 
882.00000,0.253510
882.50000, 
883.00000,0.252457
883.50000, 
884.00000,0.251297
884.50000, 
885.00000,0.250137
885.50000, 
886.00000,0.249039
886.50000, 
887.00000,0.247971
887.50000, 
888.00000,0.247192
888.50000, 
889.00000,0.245926
889.50000, 
890.00000,0.244858
890.50000, 
891.00000,0.244247
891.50000, 
892.00000,0.242798
892.50000, 
893.00000,0.241974
893.50000, 
894.00000,0.241302
894.50000, 
895.00000,0.240250
895.50000, 
896.00000,0.239456
896.50000, 
897.00000,0.238708
897.50000, 
898.00000,0.238144
898.50000, 
899.00000,0.237198
899.50000, 
900.00000,0.236847
900.50000, 
901.00000, 
901.50000, 
902.00000, 
902.50000, 
903.00000, 
903.50000, 
904.00000, 
904.50000, 
905.00000, 
905.50000, 
906.00000, 
906.50000, 
907.00000, 
907.50000, 
908.00000, 
908.50000, 
909.00000, 
909.50000, 
910.00000, 
910.50000, 
911.00000, 
911.50000, 
912.00000, 
912.50000, 
913.00000, 
913.50000, 
914.00000, 
914.50000, 
915.00000, 
915.50000, 
916.00000, 
916.50000, 
917.00000, 
917.50000, 
918.00000, 
918.50000, 
919.00000, 
919.50000, 
920.00000, 
920.50000, 
921.00000, 
921.50000, 
922.00000, 
922.50000, 
923.00000, 
923.50000, 
924.00000, 
924.50000, 
925.00000, 
925.50000, 
926.00000, 
926.50000, 
927.00000, 
927.50000, 
928.00000, 
928.50000, 
929.00000, 
929.50000, 
930.00000, 
930.50000, 
931.00000, 
931.50000, 
932.00000, 
932.50000, 
933.00000, 
933.50000, 
934.00000, 
934.50000, 
935.00000, 
935.50000, 
936.00000, 
936.50000, 
937.00000, 
937.50000, 
938.00000, 
938.50000, 
939.00000, 
939.50000, 
940.00000, 
940.50000, 
941.00000, 
941.50000, 
942.00000, 
942.50000, 
943.00000, 
943.50000, 
944.00000, 
944.50000, 
945.00000, 
945.50000, 
946.00000, 
946.50000, 
947.00000, 
947.50000, 
948.00000, 
948.50000, 
949.00000, 
949.50000, 
950.00000, 
950.50000, 
951.00000, 
951.50000, 
952.00000, 
952.50000, 
953.00000, 
953.50000, 
954.00000, 
954.50000, 
955.00000, 
955.50000, 
956.00000, 
956.50000, 
957.00000, 
957.50000, 
958.00000, 
958.50000, 
959.00000, 
959.50000, 
960.00000, 
960.50000, 
961.00000, 
961.50000, 
962.00000, 
962.50000, 
963.00000, 
963.50000, 
964.00000, 
964.50000, 
965.00000, 
965.50000, 
966.00000, 
966.50000, 
967.00000, 
967.50000, 
968.00000, 
968.50000, 
969.00000, 
969.50000, 
970.00000, 
970.50000, 
971.00000, 
971.50000, 
972.00000, 
972.50000, 
973.00000, 
973.50000, 
974.00000, 
974.50000, 
975.00000, 
975.50000, 
976.00000, 
976.50000, 
977.00000, 
977.50000, 
978.00000, 
978.50000, 
979.00000, 
979.50000, 
980.00000, 
980.50000, 
981.00000, 
981.50000, 
982.00000, 
982.50000, 
983.00000, 
983.50000, 
984.00000, 
984.50000, 
985.00000, 
985.50000, 
986.00000, 
986.50000, 
987.00000, 
987.50000, 
988.00000, 
988.50000, 
989.00000, 
989.50000, 
990.00000, 
990.50000, 
991.00000, 
991.50000, 
992.00000, 
992.50000, 
993.00000, 
993.50000, 
994.00000, 
994.50000, 
995.00000, 
995.50000, 
996.00000, 
996.50000, 
997.00000, 
997.50000, 
998.00000, 
998.50000, 
999.00000, 
999.50000, 
1000.00000, 
1000.50000, 
1001.00000, 
1001.50000, 
1002.00000, 
1002.50000, 
1003.00000, 
1003.50000, 
1004.00000, 
1004.50000, 
1005.00000, 
1005.50000, 
1006.00000, 
1006.50000, 
1007.00000, 
1007.50000, 
1008.00000, 
1008.50000, 
1009.00000, 
1009.50000, 
1010.00000, 
1010.50000, 
1011.00000, 
1011.50000, 
1012.00000, 
1012.50000, 
1013.00000, 
1013.50000, 
1014.00000, 
1014.50000, 
1015.00000, 
1015.50000, 
1016.00000, 
1016.50000, 
1017.00000, 
1017.50000, 
1018.00000, 
1018.50000, 
1019.00000, 
1019.50000, 
1020.00000, 
1020.50000, 
1021.00000, 
1021.50000, 
1022.00000, 
1022.50000, 
1023.00000, 
1023.50000, 
1024.00000, 
1024.50000, 
1025.00000, 
1025.50000, 
1026.00000, 
1026.50000, 
1027.00000, 
1027.50000, 
1028.00000, 
1028.50000, 
1029.00000, 
1029.50000, 
1030.00000, 
1030.50000, 
1031.00000, 
1031.50000, 
1032.00000, 
1032.50000, 
1033.00000, 
1033.50000, 
1034.00000, 
1034.50000, 
1035.00000, 
1035.50000, 
1036.00000, 
1036.50000, 
1037.00000, 
1037.50000, 
1038.00000, 
1038.50000, 
1039.00000, 
1039.50000, 
1040.00000, 
1040.50000, 
1041.00000, 
1041.50000, 
1042.00000, 
1042.50000, 
1043.00000, 
1043.50000, 
1044.00000, 
1044.50000, 
1045.00000, 
1045.50000, 
1046.00000, 
1046.50000, 
1047.00000, 
1047.50000, 
1048.00000, 
1048.50000, 
1049.00000, 
1049.50000, 
1050.00000, 
1050.50000, 
1051.00000, 
1051.50000, 
1052.00000, 
1052.50000, 
1053.00000, 
1053.50000, 
1054.00000, 
1054.50000, 
1055.00000, 
1055.50000, 
1056.00000, 
1056.50000, 
1057.00000, 
1057.50000, 
1058.00000, 
1058.50000, 
1059.00000, 
1059.50000, 
1060.00000, 
1060.50000, 
1061.00000, 
1061.50000, 
1062.00000, 
1062.50000, 
1063.00000, 
1063.50000, 
1064.00000, 
1064.50000, 
1065.00000, 
1065.50000, 
1066.00000, 
1066.50000, 
1067.00000, 
1067.50000, 
1068.00000, 
1068.50000, 
1069.00000, 
1069.50000, 
1070.00000, 
1070.50000, 
1071.00000, 
1071.50000, 
1072.00000, 
1072.50000, 
1073.00000, 
1073.50000, 
1074.00000, 
1074.50000, 
1075.00000, 
1075.50000, 
1076.00000, 
1076.50000, 
1077.00000, 
1077.50000, 
1078.00000, 
1078.50000, 
1079.00000, 
1079.50000, 
1080.00000, 
1080.50000, 
1081.00000, 
1081.50000, 
1082.00000, 
1082.50000, 
1083.00000, 
1083.50000, 
1084.00000, 
1084.50000, 
1085.00000, 
1085.50000, 
1086.00000, 
1086.50000, 
1087.00000, 
1087.50000, 
1088.00000, 
1088.50000, 
1089.00000, 
1089.50000, 
1090.00000, 
1090.50000, 
1091.00000, 
1091.50000, 
1092.00000, 
1092.50000, 
1093.00000, 
1093.50000, 
1094.00000, 
1094.50000, 
1095.00000, 
1095.50000, 
1096.00000, 
1096.50000, 
1097.00000, 
1097.50000, 
1098.00000, 
1098.50000, 
1099.00000, 
1099.50000, 
1100.00000, 
