"40% V - RawData"
"Wavelength nm.","Abs."
300.00000,4.000000
300.50000, 
301.00000,3.995667
301.50000, 
302.00000,4.000000
302.50000, 
303.00000,3.992233
303.50000, 
304.00000,4.000000
304.50000, 
305.00000,3.996933
305.50000, 
306.00000,3.980804
306.50000, 
307.00000,4.000000
307.50000, 
308.00000,3.948166
308.50000, 
309.00000,4.000000
309.50000, 
310.00000,4.000000
310.50000, 
311.00000,3.991867
311.50000, 
312.00000,4.000000
312.50000, 
313.00000,3.918228
313.50000, 
314.00000,3.918060
314.50000, 
315.00000,3.991211
315.50000, 
316.00000,4.000000
316.50000, 
317.00000,3.976318
317.50000, 
318.00000,3.956848
318.50000, 
319.00000,4.000000
319.50000, 
320.00000,4.000000
320.50000, 
321.00000,3.979736
321.50000, 
322.00000,3.999847
322.50000, 
323.00000,3.982712
323.50000, 
324.00000,3.952377
324.50000, 
325.00000,3.918579
325.50000, 
326.00000,3.963882
326.50000, 
327.00000,4.000000
327.50000, 
328.00000,3.967407
328.50000, 
329.00000,3.987015
329.50000, 
330.00000,4.000000
330.50000, 
331.00000,3.948273
331.50000, 
332.00000,3.996246
332.50000, 
333.00000,3.921570
333.50000, 
334.00000,3.873016
334.50000, 
335.00000,3.942795
335.50000, 
336.00000,4.000000
336.50000, 
337.00000,3.974106
337.50000, 
338.00000,3.993835
338.50000, 
339.00000,3.993698
339.50000, 
340.00000,3.978363
340.50000, 
341.00000,3.966095
341.50000, 
342.00000,3.926666
342.50000, 
343.00000,4.000000
343.50000, 
344.00000,4.000000
344.50000, 
345.00000,3.980164
345.50000, 
346.00000,3.928177
346.50000, 
347.00000,3.951797
347.50000, 
348.00000,3.984665
348.50000, 
349.00000,3.995392
349.50000, 
350.00000,3.958145
350.50000, 
351.00000,4.000000
351.50000, 
352.00000,3.985046
352.50000, 
353.00000,4.000000
353.50000, 
354.00000,3.948944
354.50000, 
355.00000,4.000000
355.50000, 
356.00000,3.965851
356.50000, 
357.00000,4.000000
357.50000, 
358.00000,3.988708
358.50000, 
359.00000,3.972626
359.50000, 
360.00000,4.000000
360.50000, 
361.00000,4.000000
361.50000, 
362.00000,3.956680
362.50000, 
363.00000,4.000000
363.50000, 
364.00000,3.990738
364.50000, 
365.00000,3.962784
365.50000, 
366.00000,3.960175
366.50000, 
367.00000,4.000000
367.50000, 
368.00000,3.984344
368.50000, 
369.00000,4.000000
369.50000, 
370.00000,3.961105
370.50000, 
371.00000,4.000000
371.50000, 
372.00000,4.000000
372.50000, 
373.00000,3.960419
373.50000, 
374.00000,3.878433
374.50000, 
375.00000,3.822357
375.50000, 
376.00000,3.716949
376.50000, 
377.00000,3.399796
377.50000, 
378.00000,3.234528
378.50000, 
379.00000,2.892059
379.50000, 
380.00000,2.718323
380.50000, 
381.00000,2.493698
381.50000, 
382.00000,2.315018
382.50000, 
383.00000,2.149368
383.50000, 
384.00000,2.009705
384.50000, 
385.00000,1.883621
385.50000, 
386.00000,1.774612
386.50000, 
387.00000,1.678955
387.50000, 
388.00000,1.598236
388.50000, 
389.00000,1.527237
389.50000, 
390.00000,1.467529
390.50000, 
391.00000,1.418594
391.50000, 
392.00000,1.378571
392.50000, 
393.00000,1.345963
393.50000, 
394.00000,1.317932
394.50000, 
395.00000,1.295303
395.50000, 
396.00000,1.273804
396.50000, 
397.00000,1.253891
397.50000, 
398.00000,1.235992
398.50000, 
399.00000,1.219147
399.50000, 
400.00000,1.204147
400.50000, 
401.00000,1.190094
401.50000, 
402.00000,1.178131
402.50000, 
403.00000,1.168350
403.50000, 
404.00000,1.159805
404.50000, 
405.00000,1.152313
405.50000, 
406.00000,1.145935
406.50000, 
407.00000,1.140564
407.50000, 
408.00000,1.135941
408.50000, 
409.00000,1.132690
409.50000, 
410.00000,1.129349
410.50000, 
411.00000,1.127274
411.50000, 
412.00000,1.125519
412.50000, 
413.00000,1.124893
413.50000, 
414.00000,1.124023
414.50000, 
415.00000,1.123672
415.50000, 
416.00000,1.123642
416.50000, 
417.00000,1.124954
417.50000, 
418.00000,1.125885
418.50000, 
419.00000,1.126816
419.50000, 
420.00000,1.127304
420.50000, 
421.00000,1.128876
421.50000, 
422.00000,1.130280
422.50000, 
423.00000,1.131958
423.50000, 
424.00000,1.133926
424.50000, 
425.00000,1.136368
425.50000, 
426.00000,1.138565
426.50000, 
427.00000,1.140961
427.50000, 
428.00000,1.143600
428.50000, 
429.00000,1.146057
429.50000, 
430.00000,1.148926
430.50000, 
431.00000,1.152008
431.50000, 
432.00000,1.155045
432.50000, 
433.00000,1.158035
433.50000, 
434.00000,1.161255
434.50000, 
435.00000,1.164215
435.50000, 
436.00000,1.167679
436.50000, 
437.00000,1.170929
437.50000, 
438.00000,1.174393
438.50000, 
439.00000,1.178146
439.50000, 
440.00000,1.181335
440.50000, 
441.00000,1.185501
441.50000, 
442.00000,1.188934
442.50000, 
443.00000,1.192764
443.50000, 
444.00000,1.196381
444.50000, 
445.00000,1.200195
445.50000, 
446.00000,1.203857
446.50000, 
447.00000,1.207901
447.50000, 
448.00000,1.211914
448.50000, 
449.00000,1.215988
449.50000, 
450.00000,1.220245
450.50000, 
451.00000,1.223938
451.50000, 
452.00000,1.228348
452.50000, 
453.00000,1.232529
453.50000, 
454.00000,1.236649
454.50000, 
455.00000,1.240723
455.50000, 
456.00000,1.244919
456.50000, 
457.00000,1.249207
457.50000, 
458.00000,1.253220
458.50000, 
459.00000,1.257507
459.50000, 
460.00000,1.261200
460.50000, 
461.00000,1.264755
461.50000, 
462.00000,1.268906
462.50000, 
463.00000,1.272522
463.50000, 
464.00000,1.275604
464.50000, 
465.00000,1.278305
465.50000, 
466.00000,1.280563
466.50000, 
467.00000,1.281235
467.50000, 
468.00000,1.280243
468.50000, 
469.00000,1.282990
469.50000, 
470.00000,1.289597
470.50000, 
471.00000,1.296890
471.50000, 
472.00000,1.305466
472.50000, 
473.00000,1.314743
473.50000, 
474.00000,1.324829
474.50000, 
475.00000,1.336258
475.50000, 
476.00000,1.349991
476.50000, 
477.00000,1.364014
477.50000, 
478.00000,1.380005
478.50000, 
479.00000,1.398712
479.50000, 
480.00000,1.418182
480.50000, 
481.00000,1.438339
481.50000, 
482.00000,1.459991
482.50000, 
483.00000,1.481613
483.50000, 
484.00000,1.502213
484.50000, 
485.00000,1.520630
485.50000, 
486.00000,1.535522
486.50000, 
487.00000,1.547638
487.50000, 
488.00000,1.556885
488.50000, 
489.00000,1.562790
489.50000, 
490.00000,1.565689
490.50000, 
491.00000,1.566513
491.50000, 
492.00000,1.565460
492.50000, 
493.00000,1.563080
493.50000, 
494.00000,1.560257
494.50000, 
495.00000,1.556824
495.50000, 
496.00000,1.553238
496.50000, 
497.00000,1.549652
497.50000, 
498.00000,1.546066
498.50000, 
499.00000,1.542160
499.50000, 
500.00000,1.538895
500.50000, 
501.00000,1.535721
501.50000, 
502.00000,1.532974
502.50000, 
503.00000,1.530563
503.50000, 
504.00000,1.527924
504.50000, 
505.00000,1.525436
505.50000, 
506.00000,1.523834
506.50000, 
507.00000,1.521973
507.50000, 
508.00000,1.520065
508.50000, 
509.00000,1.518204
509.50000, 
510.00000,1.516388
510.50000, 
511.00000,1.514572
511.50000, 
512.00000,1.512527
512.50000, 
513.00000,1.510544
513.50000, 
514.00000,1.508606
514.50000, 
515.00000,1.506943
515.50000, 
516.00000,1.504822
516.50000, 
517.00000,1.502686
517.50000, 
518.00000,1.500381
518.50000, 
519.00000,1.498199
519.50000, 
520.00000,1.496155
520.50000, 
521.00000,1.493652
521.50000, 
522.00000,1.491318
522.50000, 
523.00000,1.488937
523.50000, 
524.00000,1.486557
524.50000, 
525.00000,1.484390
525.50000, 
526.00000,1.482315
526.50000, 
527.00000,1.479813
527.50000, 
528.00000,1.477798
528.50000, 
529.00000,1.475967
529.50000, 
530.00000,1.474030
530.50000, 
531.00000,1.472122
531.50000, 
532.00000,1.470657
532.50000, 
533.00000,1.469330
533.50000, 
534.00000,1.467880
534.50000, 
535.00000,1.466736
535.50000, 
536.00000,1.464035
536.50000, 
537.00000,1.460953
537.50000, 
538.00000,1.460083
538.50000, 
539.00000,1.458984
539.50000, 
540.00000,1.458115
540.50000, 
541.00000,1.457077
541.50000, 
542.00000,1.455994
542.50000, 
543.00000,1.454819
543.50000, 
544.00000,1.453552
544.50000, 
545.00000,1.452072
545.50000, 
546.00000,1.450333
546.50000, 
547.00000,1.448456
547.50000, 
548.00000,1.446426
548.50000, 
549.00000,1.443665
549.50000, 
550.00000,1.440781
550.50000, 
551.00000,1.437836
551.50000, 
552.00000,1.434219
552.50000, 
553.00000,1.430252
553.50000, 
554.00000,1.426102
554.50000, 
555.00000,1.421875
555.50000, 
556.00000,1.416809
556.50000, 
557.00000,1.411713
557.50000, 
558.00000,1.406342
558.50000, 
559.00000,1.400284
559.50000, 
560.00000,1.394165
560.50000, 
561.00000,1.387802
561.50000, 
562.00000,1.381577
562.50000, 
563.00000,1.374832
563.50000, 
564.00000,1.367920
564.50000, 
565.00000,1.360825
565.50000, 
566.00000,1.353714
566.50000, 
567.00000,1.346634
567.50000, 
568.00000,1.339676
568.50000, 
569.00000,1.332367
569.50000, 
570.00000,1.324936
570.50000, 
571.00000,1.317657
571.50000, 
572.00000,1.310562
572.50000, 
573.00000,1.303482
573.50000, 
574.00000,1.297012
574.50000, 
575.00000,1.290573
575.50000, 
576.00000,1.284561
576.50000, 
577.00000,1.278824
577.50000, 
578.00000,1.273758
578.50000, 
579.00000,1.268585
579.50000, 
580.00000,1.263992
580.50000, 
581.00000,1.260101
581.50000, 
582.00000,1.256073
582.50000, 
583.00000,1.252777
583.50000, 
584.00000,1.249634
584.50000, 
585.00000,1.246796
585.50000, 
586.00000,1.244064
586.50000, 
587.00000,1.241821
587.50000, 
588.00000,1.239685
588.50000, 
589.00000,1.237625
589.50000, 
590.00000,1.235687
590.50000, 
591.00000,1.233765
591.50000, 
592.00000,1.231995
592.50000, 
593.00000,1.229691
593.50000, 
594.00000,1.227554
594.50000, 
595.00000,1.225052
595.50000, 
596.00000,1.222397
596.50000, 
597.00000,1.219299
597.50000, 
598.00000,1.215942
598.50000, 
599.00000,1.212097
599.50000, 
600.00000,1.207703
600.50000, 
601.00000,1.202682
601.50000, 
602.00000,1.197296
602.50000, 
603.00000,1.191635
603.50000, 
604.00000,1.185364
604.50000, 
605.00000,1.178802
605.50000, 
606.00000,1.171768
606.50000, 
607.00000,1.163895
607.50000, 
608.00000,1.155777
608.50000, 
609.00000,1.147079
609.50000, 
610.00000,1.137955
610.50000, 
611.00000,1.128708
611.50000, 
612.00000,1.119293
612.50000, 
613.00000,1.109406
613.50000, 
614.00000,1.099350
614.50000, 
615.00000,1.089157
615.50000, 
616.00000,1.078323
616.50000, 
617.00000,1.067200
617.50000, 
618.00000,1.055725
618.50000, 
619.00000,1.043945
619.50000, 
620.00000,1.032318
620.50000, 
621.00000,1.020905
621.50000, 
622.00000,1.009277
622.50000, 
623.00000,0.997742
623.50000, 
624.00000,0.986191
624.50000, 
625.00000,0.974304
625.50000, 
626.00000,0.962128
626.50000, 
627.00000,0.949295
627.50000, 
628.00000,0.934525
628.50000, 
629.00000,0.916000
629.50000, 
630.00000,0.910110
630.50000, 
631.00000,0.917633
631.50000, 
632.00000,0.929749
632.50000, 
633.00000,0.946686
633.50000, 
634.00000,0.968704
634.50000, 
635.00000,0.995743
635.50000, 
636.00000,1.024994
636.50000, 
637.00000,1.056808
637.50000, 
638.00000,1.086487
638.50000, 
639.00000,1.111862
639.50000, 
640.00000,1.129410
640.50000, 
641.00000,1.139084
641.50000, 
642.00000,1.140015
642.50000, 
643.00000,1.133316
643.50000, 
644.00000,1.120834
644.50000, 
645.00000,1.104797
645.50000, 
646.00000,1.087433
646.50000, 
647.00000,1.069305
647.50000, 
648.00000,1.051666
648.50000, 
649.00000,1.034561
649.50000, 
650.00000,1.019012
650.50000, 
651.00000,1.004700
651.50000, 
652.00000,0.991516
652.50000, 
653.00000,0.979721
653.50000, 
654.00000,0.968826
654.50000, 
655.00000,0.958359
655.50000, 
656.00000,0.948929
656.50000, 
657.00000,0.940445
657.50000, 
658.00000,0.932632
658.50000, 
659.00000,0.925339
659.50000, 
660.00000,0.918823
660.50000, 
661.00000,0.912567
661.50000, 
662.00000,0.907028
662.50000, 
663.00000,0.901581
663.50000, 
664.00000,0.896454
664.50000, 
665.00000,0.891846
665.50000, 
666.00000,0.887268
666.50000, 
667.00000,0.882919
667.50000, 
668.00000,0.878906
668.50000, 
669.00000,0.875137
669.50000, 
670.00000,0.871475
670.50000, 
671.00000,0.868210
671.50000, 
672.00000,0.865021
672.50000, 
673.00000,0.862106
673.50000, 
674.00000,0.859222
674.50000, 
675.00000,0.856598
675.50000, 
676.00000,0.853958
676.50000, 
677.00000,0.851563
677.50000, 
678.00000,0.849304
678.50000, 
679.00000,0.847183
679.50000, 
680.00000,0.845093
680.50000, 
681.00000,0.843063
681.50000, 
682.00000,0.841080
682.50000, 
683.00000,0.839310
683.50000, 
684.00000,0.837494
684.50000, 
685.00000,0.835846
685.50000, 
686.00000,0.834122
686.50000, 
687.00000,0.832535
687.50000, 
688.00000,0.830963
688.50000, 
689.00000,0.829498
689.50000, 
690.00000,0.827972
690.50000, 
691.00000,0.826553
691.50000, 
692.00000,0.825195
692.50000, 
693.00000,0.823792
693.50000, 
694.00000,0.822449
694.50000, 
695.00000,0.821167
695.50000, 
696.00000,0.819916
696.50000, 
697.00000,0.818649
697.50000, 
698.00000,0.817459
698.50000, 
699.00000,0.816330
699.50000, 
700.00000,0.815308
700.50000, 
701.00000,0.814240
701.50000, 
702.00000,0.813095
702.50000, 
703.00000,0.811935
703.50000, 
704.00000,0.810837
704.50000, 
705.00000,0.809998
705.50000, 
706.00000,0.808975
706.50000, 
707.00000,0.808060
707.50000, 
708.00000,0.807098
708.50000, 
709.00000,0.806290
709.50000, 
710.00000,0.805359
710.50000, 
711.00000,0.804443
711.50000, 
712.00000,0.803543
712.50000, 
713.00000,0.802612
713.50000, 
714.00000,0.801758
714.50000, 
715.00000,0.800858
715.50000, 
716.00000,0.800171
716.50000, 
717.00000,0.799316
717.50000, 
718.00000,0.798599
718.50000, 
719.00000,0.797729
719.50000, 
720.00000,0.796921
720.50000, 
721.00000,0.796249
721.50000, 
722.00000,0.795517
722.50000, 
723.00000,0.794815
723.50000, 
724.00000,0.794083
724.50000, 
725.00000,0.793381
725.50000, 
726.00000,0.792633
726.50000, 
727.00000,0.792023
727.50000, 
728.00000,0.791382
728.50000, 
729.00000,0.790756
729.50000, 
730.00000,0.790222
730.50000, 
731.00000,0.789520
731.50000, 
732.00000,0.789032
732.50000, 
733.00000,0.788422
733.50000, 
734.00000,0.787949
734.50000, 
735.00000,0.787338
735.50000, 
736.00000,0.786713
736.50000, 
737.00000,0.786255
737.50000, 
738.00000,0.785614
738.50000, 
739.00000,0.785156
739.50000, 
740.00000,0.784607
740.50000, 
741.00000,0.783997
741.50000, 
742.00000,0.783417
742.50000, 
743.00000,0.782852
743.50000, 
744.00000,0.782410
744.50000, 
745.00000,0.781921
745.50000, 
746.00000,0.781509
746.50000, 
747.00000,0.781113
747.50000, 
748.00000,0.780640
748.50000, 
749.00000,0.780212
749.50000, 
750.00000,0.779800
750.50000, 
751.00000,0.779343
751.50000, 
752.00000,0.779037
752.50000, 
753.00000,0.778595
753.50000, 
754.00000,0.778183
754.50000, 
755.00000,0.777847
755.50000, 
756.00000,0.777283
756.50000, 
757.00000,0.777115
757.50000, 
758.00000,0.776627
758.50000, 
759.00000,0.776291
759.50000, 
760.00000,0.776138
760.50000, 
761.00000,0.775681
761.50000, 
762.00000,0.775375
762.50000, 
763.00000,0.774841
763.50000, 
764.00000,0.774628
764.50000, 
765.00000,0.774338
765.50000, 
766.00000,0.773956
766.50000, 
767.00000,0.773758
767.50000, 
768.00000,0.773392
768.50000, 
769.00000,0.772934
769.50000, 
770.00000,0.772827
770.50000, 
771.00000,0.772369
771.50000, 
772.00000,0.772049
772.50000, 
773.00000,0.771759
773.50000, 
774.00000,0.771179
774.50000, 
775.00000,0.770996
775.50000, 
776.00000,0.770432
776.50000, 
777.00000,0.770248
777.50000, 
778.00000,0.769806
778.50000, 
779.00000,0.769318
779.50000, 
780.00000,0.768906
780.50000, 
781.00000,0.768585
781.50000, 
782.00000,0.767807
782.50000, 
783.00000,0.767578
783.50000, 
784.00000,0.766861
784.50000, 
785.00000,0.766296
785.50000, 
786.00000,0.765747
786.50000, 
787.00000,0.764908
787.50000, 
788.00000,0.764160
788.50000, 
789.00000,0.763535
789.50000, 
790.00000,0.762604
790.50000, 
791.00000,0.761917
791.50000, 
792.00000,0.760818
792.50000, 
793.00000,0.759659
793.50000, 
794.00000,0.758698
794.50000, 
795.00000,0.757492
795.50000, 
796.00000,0.756302
796.50000, 
797.00000,0.755341
797.50000, 
798.00000,0.753632
798.50000, 
799.00000,0.752090
799.50000, 
800.00000,0.750626
800.50000, 
801.00000,0.748886
801.50000, 
802.00000,0.746902
802.50000, 
803.00000,0.745132
803.50000, 
804.00000,0.742722
804.50000, 
805.00000,0.740723
805.50000, 
806.00000,0.738510
806.50000, 
807.00000,0.735992
807.50000, 
808.00000,0.733398
808.50000, 
809.00000,0.730743
809.50000, 
810.00000,0.727402
810.50000, 
811.00000,0.724716
811.50000, 
812.00000,0.721329
812.50000, 
813.00000,0.717972
813.50000, 
814.00000,0.714691
814.50000, 
815.00000,0.711243
815.50000, 
816.00000,0.707138
816.50000, 
817.00000,0.703842
817.50000, 
818.00000,0.699799
818.50000, 
819.00000,0.695816
819.50000, 
820.00000,0.691910
820.50000, 
821.00000,0.687683
821.50000, 
822.00000,0.683212
822.50000, 
823.00000,0.679062
823.50000, 
824.00000,0.674438
824.50000, 
825.00000,0.669571
825.50000, 
826.00000,0.665268
826.50000, 
827.00000,0.660126
827.50000, 
828.00000,0.655045
828.50000, 
829.00000,0.650208
829.50000, 
830.00000,0.645203
830.50000, 
831.00000,0.639343
831.50000, 
832.00000,0.634491
832.50000, 
833.00000,0.629013
833.50000, 
834.00000,0.623093
834.50000, 
835.00000,0.617966
835.50000, 
836.00000,0.612488
836.50000, 
837.00000,0.606567
837.50000, 
838.00000,0.601288
838.50000, 
839.00000,0.595901
839.50000, 
840.00000,0.589584
840.50000, 
841.00000,0.584518
841.50000, 
842.00000,0.579132
842.50000, 
843.00000,0.573090
843.50000, 
844.00000,0.567505
844.50000, 
845.00000,0.562378
845.50000, 
846.00000,0.556564
846.50000, 
847.00000,0.550552
847.50000, 
848.00000,0.545502
848.50000, 
849.00000,0.539383
849.50000, 
850.00000,0.533264
850.50000, 
851.00000,0.527939
851.50000, 
852.00000,0.522079
852.50000, 
853.00000,0.515778
853.50000, 
854.00000,0.510452
854.50000, 
855.00000,0.504913
855.50000, 
856.00000,0.498856
856.50000, 
857.00000,0.493896
857.50000, 
858.00000,0.488388
858.50000, 
859.00000,0.482590
859.50000, 
860.00000,0.477264
860.50000, 
861.00000,0.472458
861.50000, 
862.00000,0.466919
862.50000, 
863.00000,0.461990
863.50000, 
864.00000,0.457565
864.50000, 
865.00000,0.452408
865.50000, 
866.00000,0.447388
866.50000, 
867.00000,0.443069
867.50000, 
868.00000,0.438370
868.50000, 
869.00000,0.433365
869.50000, 
870.00000,0.429092
870.50000, 
871.00000,0.424896
871.50000, 
872.00000,0.419998
872.50000, 
873.00000,0.415497
873.50000, 
874.00000,0.411728
874.50000, 
875.00000,0.407272
875.50000, 
876.00000,0.402496
876.50000, 
877.00000,0.398697
877.50000, 
878.00000,0.394562
878.50000, 
879.00000,0.390152
879.50000, 
880.00000,0.386566
880.50000, 
881.00000,0.383224
881.50000, 
882.00000,0.379257
882.50000, 
883.00000,0.375198
883.50000, 
884.00000,0.372131
884.50000, 
885.00000,0.368744
885.50000, 
886.00000,0.364929
886.50000, 
887.00000,0.361923
887.50000, 
888.00000,0.359131
888.50000, 
889.00000,0.355682
889.50000, 
890.00000,0.352127
890.50000, 
891.00000,0.349594
891.50000, 
892.00000,0.346619
892.50000, 
893.00000,0.343033
893.50000, 
894.00000,0.340378
894.50000, 
895.00000,0.337906
895.50000, 
896.00000,0.334976
896.50000, 
897.00000,0.331909
897.50000, 
898.00000,0.329742
898.50000, 
899.00000,0.327499
899.50000, 
900.00000,0.324982
900.50000, 
901.00000, 
901.50000, 
902.00000, 
902.50000, 
903.00000, 
903.50000, 
904.00000, 
904.50000, 
905.00000, 
905.50000, 
906.00000, 
906.50000, 
907.00000, 
907.50000, 
908.00000, 
908.50000, 
909.00000, 
909.50000, 
910.00000, 
910.50000, 
911.00000, 
911.50000, 
912.00000, 
912.50000, 
913.00000, 
913.50000, 
914.00000, 
914.50000, 
915.00000, 
915.50000, 
916.00000, 
916.50000, 
917.00000, 
917.50000, 
918.00000, 
918.50000, 
919.00000, 
919.50000, 
920.00000, 
920.50000, 
921.00000, 
921.50000, 
922.00000, 
922.50000, 
923.00000, 
923.50000, 
924.00000, 
924.50000, 
925.00000, 
925.50000, 
926.00000, 
926.50000, 
927.00000, 
927.50000, 
928.00000, 
928.50000, 
929.00000, 
929.50000, 
930.00000, 
930.50000, 
931.00000, 
931.50000, 
932.00000, 
932.50000, 
933.00000, 
933.50000, 
934.00000, 
934.50000, 
935.00000, 
935.50000, 
936.00000, 
936.50000, 
937.00000, 
937.50000, 
938.00000, 
938.50000, 
939.00000, 
939.50000, 
940.00000, 
940.50000, 
941.00000, 
941.50000, 
942.00000, 
942.50000, 
943.00000, 
943.50000, 
944.00000, 
944.50000, 
945.00000, 
945.50000, 
946.00000, 
946.50000, 
947.00000, 
947.50000, 
948.00000, 
948.50000, 
949.00000, 
949.50000, 
950.00000, 
950.50000, 
951.00000, 
951.50000, 
952.00000, 
952.50000, 
953.00000, 
953.50000, 
954.00000, 
954.50000, 
955.00000, 
955.50000, 
956.00000, 
956.50000, 
957.00000, 
957.50000, 
958.00000, 
958.50000, 
959.00000, 
959.50000, 
960.00000, 
960.50000, 
961.00000, 
961.50000, 
962.00000, 
962.50000, 
963.00000, 
963.50000, 
964.00000, 
964.50000, 
965.00000, 
965.50000, 
966.00000, 
966.50000, 
967.00000, 
967.50000, 
968.00000, 
968.50000, 
969.00000, 
969.50000, 
970.00000, 
970.50000, 
971.00000, 
971.50000, 
972.00000, 
972.50000, 
973.00000, 
973.50000, 
974.00000, 
974.50000, 
975.00000, 
975.50000, 
976.00000, 
976.50000, 
977.00000, 
977.50000, 
978.00000, 
978.50000, 
979.00000, 
979.50000, 
980.00000, 
980.50000, 
981.00000, 
981.50000, 
982.00000, 
982.50000, 
983.00000, 
983.50000, 
984.00000, 
984.50000, 
985.00000, 
985.50000, 
986.00000, 
986.50000, 
987.00000, 
987.50000, 
988.00000, 
988.50000, 
989.00000, 
989.50000, 
990.00000, 
990.50000, 
991.00000, 
991.50000, 
992.00000, 
992.50000, 
993.00000, 
993.50000, 
994.00000, 
994.50000, 
995.00000, 
995.50000, 
996.00000, 
996.50000, 
997.00000, 
997.50000, 
998.00000, 
998.50000, 
999.00000, 
999.50000, 
1000.00000, 
1000.50000, 
1001.00000, 
1001.50000, 
1002.00000, 
1002.50000, 
1003.00000, 
1003.50000, 
1004.00000, 
1004.50000, 
1005.00000, 
1005.50000, 
1006.00000, 
1006.50000, 
1007.00000, 
1007.50000, 
1008.00000, 
1008.50000, 
1009.00000, 
1009.50000, 
1010.00000, 
1010.50000, 
1011.00000, 
1011.50000, 
1012.00000, 
1012.50000, 
1013.00000, 
1013.50000, 
1014.00000, 
1014.50000, 
1015.00000, 
1015.50000, 
1016.00000, 
1016.50000, 
1017.00000, 
1017.50000, 
1018.00000, 
1018.50000, 
1019.00000, 
1019.50000, 
1020.00000, 
1020.50000, 
1021.00000, 
1021.50000, 
1022.00000, 
1022.50000, 
1023.00000, 
1023.50000, 
1024.00000, 
1024.50000, 
1025.00000, 
1025.50000, 
1026.00000, 
1026.50000, 
1027.00000, 
1027.50000, 
1028.00000, 
1028.50000, 
1029.00000, 
1029.50000, 
1030.00000, 
1030.50000, 
1031.00000, 
1031.50000, 
1032.00000, 
1032.50000, 
1033.00000, 
1033.50000, 
1034.00000, 
1034.50000, 
1035.00000, 
1035.50000, 
1036.00000, 
1036.50000, 
1037.00000, 
1037.50000, 
1038.00000, 
1038.50000, 
1039.00000, 
1039.50000, 
1040.00000, 
1040.50000, 
1041.00000, 
1041.50000, 
1042.00000, 
1042.50000, 
1043.00000, 
1043.50000, 
1044.00000, 
1044.50000, 
1045.00000, 
1045.50000, 
1046.00000, 
1046.50000, 
1047.00000, 
1047.50000, 
1048.00000, 
1048.50000, 
1049.00000, 
1049.50000, 
1050.00000, 
1050.50000, 
1051.00000, 
1051.50000, 
1052.00000, 
1052.50000, 
1053.00000, 
1053.50000, 
1054.00000, 
1054.50000, 
1055.00000, 
1055.50000, 
1056.00000, 
1056.50000, 
1057.00000, 
1057.50000, 
1058.00000, 
1058.50000, 
1059.00000, 
1059.50000, 
1060.00000, 
1060.50000, 
1061.00000, 
1061.50000, 
1062.00000, 
1062.50000, 
1063.00000, 
1063.50000, 
1064.00000, 
1064.50000, 
1065.00000, 
1065.50000, 
1066.00000, 
1066.50000, 
1067.00000, 
1067.50000, 
1068.00000, 
1068.50000, 
1069.00000, 
1069.50000, 
1070.00000, 
1070.50000, 
1071.00000, 
1071.50000, 
1072.00000, 
1072.50000, 
1073.00000, 
1073.50000, 
1074.00000, 
1074.50000, 
1075.00000, 
1075.50000, 
1076.00000, 
1076.50000, 
1077.00000, 
1077.50000, 
1078.00000, 
1078.50000, 
1079.00000, 
1079.50000, 
1080.00000, 
1080.50000, 
1081.00000, 
1081.50000, 
1082.00000, 
1082.50000, 
1083.00000, 
1083.50000, 
1084.00000, 
1084.50000, 
1085.00000, 
1085.50000, 
1086.00000, 
1086.50000, 
1087.00000, 
1087.50000, 
1088.00000, 
1088.50000, 
1089.00000, 
1089.50000, 
1090.00000, 
1090.50000, 
1091.00000, 
1091.50000, 
1092.00000, 
1092.50000, 
1093.00000, 
1093.50000, 
1094.00000, 
1094.50000, 
1095.00000, 
1095.50000, 
1096.00000, 
1096.50000, 
1097.00000, 
1097.50000, 
1098.00000, 
1098.50000, 
1099.00000, 
1099.50000, 
1100.00000, 
