"40% H - RawData"
"Wavelength nm.","Abs."
300.00000,4.000000
300.50000, 
301.00000,4.000000
301.50000, 
302.00000,4.000000
302.50000, 
303.00000,3.967834
303.50000, 
304.00000,3.980057
304.50000, 
305.00000,3.950043
305.50000, 
306.00000,3.976517
306.50000, 
307.00000,4.000000
307.50000, 
308.00000,4.000000
308.50000, 
309.00000,3.946487
309.50000, 
310.00000,3.979858
310.50000, 
311.00000,3.928055
311.50000, 
312.00000,3.972015
312.50000, 
313.00000,3.961899
313.50000, 
314.00000,4.000000
314.50000, 
315.00000,3.943390
315.50000, 
316.00000,3.934158
316.50000, 
317.00000,3.990662
317.50000, 
318.00000,4.000000
318.50000, 
319.00000,4.000000
319.50000, 
320.00000,3.946869
320.50000, 
321.00000,3.804749
321.50000, 
322.00000,4.000000
322.50000, 
323.00000,3.993057
323.50000, 
324.00000,3.855255
324.50000, 
325.00000,3.981033
325.50000, 
326.00000,4.000000
326.50000, 
327.00000,3.963623
327.50000, 
328.00000,3.964905
328.50000, 
329.00000,3.980072
329.50000, 
330.00000,3.946213
330.50000, 
331.00000,3.963318
331.50000, 
332.00000,3.924500
332.50000, 
333.00000,3.971054
333.50000, 
334.00000,3.973755
334.50000, 
335.00000,3.939987
335.50000, 
336.00000,3.881485
336.50000, 
337.00000,3.963242
337.50000, 
338.00000,3.888763
338.50000, 
339.00000,3.968689
339.50000, 
340.00000,3.992722
340.50000, 
341.00000,3.978592
341.50000, 
342.00000,4.000000
342.50000, 
343.00000,3.993591
343.50000, 
344.00000,4.000000
344.50000, 
345.00000,3.969589
345.50000, 
346.00000,4.000000
346.50000, 
347.00000,3.980560
347.50000, 
348.00000,4.000000
348.50000, 
349.00000,4.000000
349.50000, 
350.00000,3.979080
350.50000, 
351.00000,3.989639
351.50000, 
352.00000,4.000000
352.50000, 
353.00000,3.928650
353.50000, 
354.00000,3.906937
354.50000, 
355.00000,3.985107
355.50000, 
356.00000,3.976379
356.50000, 
357.00000,3.950912
357.50000, 
358.00000,3.926971
358.50000, 
359.00000,3.980225
359.50000, 
360.00000,3.993759
360.50000, 
361.00000,3.964294
361.50000, 
362.00000,3.824173
362.50000, 
363.00000,3.826508
363.50000, 
364.00000,3.954544
364.50000, 
365.00000,3.953568
365.50000, 
366.00000,3.967743
366.50000, 
367.00000,3.977173
367.50000, 
368.00000,3.903427
368.50000, 
369.00000,3.942612
369.50000, 
370.00000,3.941254
370.50000, 
371.00000,3.987885
371.50000, 
372.00000,3.963638
372.50000, 
373.00000,3.965317
373.50000, 
374.00000,3.897079
374.50000, 
375.00000,3.857834
375.50000, 
376.00000,3.592957
376.50000, 
377.00000,3.572296
377.50000, 
378.00000,3.197067
378.50000, 
379.00000,2.960220
379.50000, 
380.00000,2.695190
380.50000, 
381.00000,2.497787
381.50000, 
382.00000,2.310608
382.50000, 
383.00000,2.149963
383.50000, 
384.00000,1.999619
384.50000, 
385.00000,1.866196
385.50000, 
386.00000,1.756577
386.50000, 
387.00000,1.658432
387.50000, 
388.00000,1.566620
388.50000, 
389.00000,1.484314
389.50000, 
390.00000,1.412903
390.50000, 
391.00000,1.347351
391.50000, 
392.00000,1.292969
392.50000, 
393.00000,1.244965
393.50000, 
394.00000,1.204544
394.50000, 
395.00000,1.172668
395.50000, 
396.00000,1.144058
396.50000, 
397.00000,1.120850
397.50000, 
398.00000,1.102310
398.50000, 
399.00000,1.088074
399.50000, 
400.00000,1.077286
400.50000, 
401.00000,1.068588
401.50000, 
402.00000,1.061966
402.50000, 
403.00000,1.058640
403.50000, 
404.00000,1.055557
404.50000, 
405.00000,1.054306
405.50000, 
406.00000,1.053879
406.50000, 
407.00000,1.053650
407.50000, 
408.00000,1.054703
408.50000, 
409.00000,1.055893
409.50000, 
410.00000,1.057953
410.50000, 
411.00000,1.059921
411.50000, 
412.00000,1.063095
412.50000, 
413.00000,1.065811
413.50000, 
414.00000,1.068893
414.50000, 
415.00000,1.072189
415.50000, 
416.00000,1.075760
416.50000, 
417.00000,1.080460
417.50000, 
418.00000,1.084595
418.50000, 
419.00000,1.088608
419.50000, 
420.00000,1.092880
420.50000, 
421.00000,1.097214
421.50000, 
422.00000,1.101944
422.50000, 
423.00000,1.106705
423.50000, 
424.00000,1.111557
424.50000, 
425.00000,1.117004
425.50000, 
426.00000,1.121933
426.50000, 
427.00000,1.126953
427.50000, 
428.00000,1.132385
428.50000, 
429.00000,1.137634
429.50000, 
430.00000,1.143005
430.50000, 
431.00000,1.148819
431.50000, 
432.00000,1.154602
432.50000, 
433.00000,1.159912
433.50000, 
434.00000,1.165588
434.50000, 
435.00000,1.170944
435.50000, 
436.00000,1.176392
436.50000, 
437.00000,1.181732
437.50000, 
438.00000,1.187561
438.50000, 
439.00000,1.193146
439.50000, 
440.00000,1.198898
440.50000, 
441.00000,1.204712
441.50000, 
442.00000,1.210617
442.50000, 
443.00000,1.216110
443.50000, 
444.00000,1.221329
444.50000, 
445.00000,1.227524
445.50000, 
446.00000,1.233475
446.50000, 
447.00000,1.239532
447.50000, 
448.00000,1.245804
448.50000, 
449.00000,1.251892
449.50000, 
450.00000,1.258026
450.50000, 
451.00000,1.264053
451.50000, 
452.00000,1.270004
452.50000, 
453.00000,1.276154
453.50000, 
454.00000,1.282318
454.50000, 
455.00000,1.288681
455.50000, 
456.00000,1.294907
456.50000, 
457.00000,1.300842
457.50000, 
458.00000,1.307541
458.50000, 
459.00000,1.314056
459.50000, 
460.00000,1.320114
460.50000, 
461.00000,1.326599
461.50000, 
462.00000,1.333054
462.50000, 
463.00000,1.339020
463.50000, 
464.00000,1.345856
464.50000, 
465.00000,1.352585
465.50000, 
466.00000,1.360229
466.50000, 
467.00000,1.368576
467.50000, 
468.00000,1.377991
468.50000, 
469.00000,1.384506
469.50000, 
470.00000,1.388763
470.50000, 
471.00000,1.391861
471.50000, 
472.00000,1.394226
472.50000, 
473.00000,1.396729
473.50000, 
474.00000,1.398010
474.50000, 
475.00000,1.398300
475.50000, 
476.00000,1.397919
476.50000, 
477.00000,1.396179
477.50000, 
478.00000,1.393753
478.50000, 
479.00000,1.390167
479.50000, 
480.00000,1.386414
480.50000, 
481.00000,1.382217
481.50000, 
482.00000,1.377914
482.50000, 
483.00000,1.374054
483.50000, 
484.00000,1.371216
484.50000, 
485.00000,1.369156
485.50000, 
486.00000,1.368256
486.50000, 
487.00000,1.368744
487.50000, 
488.00000,1.370392
488.50000, 
489.00000,1.373230
489.50000, 
490.00000,1.376801
490.50000, 
491.00000,1.381058
491.50000, 
492.00000,1.386124
492.50000, 
493.00000,1.391647
493.50000, 
494.00000,1.397247
494.50000, 
495.00000,1.403183
495.50000, 
496.00000,1.409073
496.50000, 
497.00000,1.414917
497.50000, 
498.00000,1.420837
498.50000, 
499.00000,1.426498
499.50000, 
500.00000,1.432022
500.50000, 
501.00000,1.437393
501.50000, 
502.00000,1.442795
502.50000, 
503.00000,1.447571
503.50000, 
504.00000,1.451813
504.50000, 
505.00000,1.455673
505.50000, 
506.00000,1.459320
506.50000, 
507.00000,1.462845
507.50000, 
508.00000,1.466263
508.50000, 
509.00000,1.468674
509.50000, 
510.00000,1.471375
510.50000, 
511.00000,1.473724
511.50000, 
512.00000,1.475388
512.50000, 
513.00000,1.476868
513.50000, 
514.00000,1.478104
514.50000, 
515.00000,1.479156
515.50000, 
516.00000,1.479965
516.50000, 
517.00000,1.480225
517.50000, 
518.00000,1.480545
518.50000, 
519.00000,1.480255
519.50000, 
520.00000,1.480301
520.50000, 
521.00000,1.479996
521.50000, 
522.00000,1.479568
522.50000, 
523.00000,1.478912
523.50000, 
524.00000,1.478165
524.50000, 
525.00000,1.477097
525.50000, 
526.00000,1.476410
526.50000, 
527.00000,1.475540
527.50000, 
528.00000,1.474411
528.50000, 
529.00000,1.473465
529.50000, 
530.00000,1.472366
530.50000, 
531.00000,1.471451
531.50000, 
532.00000,1.470612
532.50000, 
533.00000,1.470184
533.50000, 
534.00000,1.468826
534.50000, 
535.00000,1.468277
535.50000, 
536.00000,1.466232
536.50000, 
537.00000,1.463623
537.50000, 
538.00000,1.462448
538.50000, 
539.00000,1.461685
539.50000, 
540.00000,1.460602
540.50000, 
541.00000,1.459412
541.50000, 
542.00000,1.458023
542.50000, 
543.00000,1.456482
543.50000, 
544.00000,1.454742
544.50000, 
545.00000,1.452728
545.50000, 
546.00000,1.450317
546.50000, 
547.00000,1.447632
547.50000, 
548.00000,1.444626
548.50000, 
549.00000,1.441193
549.50000, 
550.00000,1.437134
550.50000, 
551.00000,1.432953
551.50000, 
552.00000,1.428314
552.50000, 
553.00000,1.422974
553.50000, 
554.00000,1.417206
554.50000, 
555.00000,1.411331
555.50000, 
556.00000,1.404724
556.50000, 
557.00000,1.398056
557.50000, 
558.00000,1.390945
558.50000, 
559.00000,1.383118
559.50000, 
560.00000,1.375107
560.50000, 
561.00000,1.366974
561.50000, 
562.00000,1.358887
562.50000, 
563.00000,1.350037
563.50000, 
564.00000,1.341064
564.50000, 
565.00000,1.331818
565.50000, 
566.00000,1.322754
566.50000, 
567.00000,1.313507
567.50000, 
568.00000,1.304474
568.50000, 
569.00000,1.295135
569.50000, 
570.00000,1.285248
570.50000, 
571.00000,1.275513
571.50000, 
572.00000,1.266312
572.50000, 
573.00000,1.257080
573.50000, 
574.00000,1.248306
574.50000, 
575.00000,1.239609
575.50000, 
576.00000,1.231552
576.50000, 
577.00000,1.223801
577.50000, 
578.00000,1.216507
578.50000, 
579.00000,1.209396
579.50000, 
580.00000,1.202835
580.50000, 
581.00000,1.196915
581.50000, 
582.00000,1.190903
582.50000, 
583.00000,1.185730
583.50000, 
584.00000,1.180801
584.50000, 
585.00000,1.176132
585.50000, 
586.00000,1.171524
586.50000, 
587.00000,1.167236
587.50000, 
588.00000,1.163116
588.50000, 
589.00000,1.159073
589.50000, 
590.00000,1.155090
590.50000, 
591.00000,1.151077
591.50000, 
592.00000,1.147217
592.50000, 
593.00000,1.142731
593.50000, 
594.00000,1.138260
594.50000, 
595.00000,1.133331
595.50000, 
596.00000,1.128082
596.50000, 
597.00000,1.122284
597.50000, 
598.00000,1.116226
598.50000, 
599.00000,1.109390
599.50000, 
600.00000,1.101913
600.50000, 
601.00000,1.093750
601.50000, 
602.00000,1.085098
602.50000, 
603.00000,1.076035
603.50000, 
604.00000,1.066254
604.50000, 
605.00000,1.056198
605.50000, 
606.00000,1.045578
606.50000, 
607.00000,1.034012
607.50000, 
608.00000,1.021805
608.50000, 
609.00000,1.009048
609.50000, 
610.00000,0.995911
610.50000, 
611.00000,0.982468
611.50000, 
612.00000,0.968933
612.50000, 
613.00000,0.954941
613.50000, 
614.00000,0.940643
614.50000, 
615.00000,0.926208
615.50000, 
616.00000,0.911133
616.50000, 
617.00000,0.895782
617.50000, 
618.00000,0.880081
618.50000, 
619.00000,0.864044
619.50000, 
620.00000,0.848404
620.50000, 
621.00000,0.833282
621.50000, 
622.00000,0.818192
622.50000, 
623.00000,0.803452
623.50000, 
624.00000,0.789444
624.50000, 
625.00000,0.775787
625.50000, 
626.00000,0.762924
626.50000, 
627.00000,0.751404
627.50000, 
628.00000,0.741837
628.50000, 
629.00000,0.734634
629.50000, 
630.00000,0.721146
630.50000, 
631.00000,0.701843
631.50000, 
632.00000,0.681641
632.50000, 
633.00000,0.660370
633.50000, 
634.00000,0.638397
634.50000, 
635.00000,0.616440
635.50000, 
636.00000,0.596207
636.50000, 
637.00000,0.576828
637.50000, 
638.00000,0.559799
638.50000, 
639.00000,0.545288
639.50000, 
640.00000,0.533920
640.50000, 
641.00000,0.524933
641.50000, 
642.00000,0.518021
642.50000, 
643.00000,0.513306
643.50000, 
644.00000,0.509872
644.50000, 
645.00000,0.507813
645.50000, 
646.00000,0.506699
646.50000, 
647.00000,0.506165
647.50000, 
648.00000,0.505920
648.50000, 
649.00000,0.505875
649.50000, 
650.00000,0.506119
650.50000, 
651.00000,0.506241
651.50000, 
652.00000,0.506546
652.50000, 
653.00000,0.506577
653.50000, 
654.00000,0.506821
654.50000, 
655.00000,0.506912
655.50000, 
656.00000,0.507050
656.50000, 
657.00000,0.506958
657.50000, 
658.00000,0.506897
658.50000, 
659.00000,0.506561
659.50000, 
660.00000,0.506546
660.50000, 
661.00000,0.506287
661.50000, 
662.00000,0.506210
662.50000, 
663.00000,0.505768
663.50000, 
664.00000,0.505554
664.50000, 
665.00000,0.505096
665.50000, 
666.00000,0.504776
666.50000, 
667.00000,0.504318
667.50000, 
668.00000,0.503845
668.50000, 
669.00000,0.503250
669.50000, 
670.00000,0.502716
670.50000, 
671.00000,0.502121
671.50000, 
672.00000,0.501495
672.50000, 
673.00000,0.500900
673.50000, 
674.00000,0.500229
674.50000, 
675.00000,0.499664
675.50000, 
676.00000,0.498993
676.50000, 
677.00000,0.498398
677.50000, 
678.00000,0.497620
678.50000, 
679.00000,0.497009
679.50000, 
680.00000,0.496216
680.50000, 
681.00000,0.495529
681.50000, 
682.00000,0.494659
682.50000, 
683.00000,0.493912
683.50000, 
684.00000,0.493134
684.50000, 
685.00000,0.492371
685.50000, 
686.00000,0.491623
686.50000, 
687.00000,0.490723
687.50000, 
688.00000,0.490067
688.50000, 
689.00000,0.489075
689.50000, 
690.00000,0.488373
690.50000, 
691.00000,0.487320
691.50000, 
692.00000,0.486649
692.50000, 
693.00000,0.485489
693.50000, 
694.00000,0.484818
694.50000, 
695.00000,0.483810
695.50000, 
696.00000,0.483078
696.50000, 
697.00000,0.482010
697.50000, 
698.00000,0.481277
698.50000, 
699.00000,0.480240
699.50000, 
700.00000,0.479507
700.50000, 
701.00000,0.478577
701.50000, 
702.00000,0.477570
702.50000, 
703.00000,0.476685
703.50000, 
704.00000,0.475586
704.50000, 
705.00000,0.474899
705.50000, 
706.00000,0.473709
706.50000, 
707.00000,0.473053
707.50000, 
708.00000,0.471832
708.50000, 
709.00000,0.471176
709.50000, 
710.00000,0.470184
710.50000, 
711.00000,0.469162
711.50000, 
712.00000,0.468277
712.50000, 
713.00000,0.467133
713.50000, 
714.00000,0.466248
714.50000, 
715.00000,0.465027
715.50000, 
716.00000,0.464325
716.50000, 
717.00000,0.463058
717.50000, 
718.00000,0.462372
718.50000, 
719.00000,0.461121
719.50000, 
720.00000,0.460220
720.50000, 
721.00000,0.459244
721.50000, 
722.00000,0.458160
722.50000, 
723.00000,0.457352
723.50000, 
724.00000,0.456207
724.50000, 
725.00000,0.455429
725.50000, 
726.00000,0.454239
726.50000, 
727.00000,0.453461
727.50000, 
728.00000,0.452362
728.50000, 
729.00000,0.451462
729.50000, 
730.00000,0.450714
730.50000, 
731.00000,0.449539
731.50000, 
732.00000,0.448898
732.50000, 
733.00000,0.447754
733.50000, 
734.00000,0.446899
734.50000, 
735.00000,0.445969
735.50000, 
736.00000,0.444885
736.50000, 
737.00000,0.444168
737.50000, 
738.00000,0.443008
738.50000, 
739.00000,0.442307
739.50000, 
740.00000,0.441330
740.50000, 
741.00000,0.440186
741.50000, 
742.00000,0.439407
742.50000, 
743.00000,0.438141
743.50000, 
744.00000,0.437424
744.50000, 
745.00000,0.436295
745.50000, 
746.00000,0.435425
746.50000, 
747.00000,0.434738
747.50000, 
748.00000,0.433578
748.50000, 
749.00000,0.432953
749.50000, 
750.00000,0.431961
750.50000, 
751.00000,0.430984
751.50000, 
752.00000,0.430389
752.50000, 
753.00000,0.429153
753.50000, 
754.00000,0.428574
754.50000, 
755.00000,0.427628
755.50000, 
756.00000,0.426605
756.50000, 
757.00000,0.426086
757.50000, 
758.00000,0.424881
758.50000, 
759.00000,0.424225
759.50000, 
760.00000,0.423370
760.50000, 
761.00000,0.422318
761.50000, 
762.00000,0.421692
762.50000, 
763.00000,0.420441
763.50000, 
764.00000,0.419846
764.50000, 
765.00000,0.418976
765.50000, 
766.00000,0.417953
766.50000, 
767.00000,0.417374
767.50000, 
768.00000,0.416245
768.50000, 
769.00000,0.415527
769.50000, 
770.00000,0.414795
770.50000, 
771.00000,0.413681
771.50000, 
772.00000,0.413208
772.50000, 
773.00000,0.412201
773.50000, 
774.00000,0.411362
774.50000, 
775.00000,0.410828
775.50000, 
776.00000,0.409714
776.50000, 
777.00000,0.409195
777.50000, 
778.00000,0.408401
778.50000, 
779.00000,0.407318
779.50000, 
780.00000,0.406860
780.50000, 
781.00000,0.406021
781.50000, 
782.00000,0.405045
782.50000, 
783.00000,0.404602
783.50000, 
784.00000,0.403427
784.50000, 
785.00000,0.402756
785.50000, 
786.00000,0.402023
786.50000, 
787.00000,0.400970
787.50000, 
788.00000,0.400375
788.50000, 
789.00000,0.399521
789.50000, 
790.00000,0.398468
790.50000, 
791.00000,0.397995
791.50000, 
792.00000,0.396820
792.50000, 
793.00000,0.396088
793.50000, 
794.00000,0.395309
794.50000, 
795.00000,0.394241
795.50000, 
796.00000,0.393509
796.50000, 
797.00000,0.392960
797.50000, 
798.00000,0.391602
798.50000, 
799.00000,0.390945
799.50000, 
800.00000,0.390076
800.50000, 
801.00000,0.388947
801.50000, 
802.00000,0.388138
802.50000, 
803.00000,0.387192
803.50000, 
804.00000,0.385788
804.50000, 
805.00000,0.385132
805.50000, 
806.00000,0.383957
806.50000, 
807.00000,0.382919
807.50000, 
808.00000,0.381989
808.50000, 
809.00000,0.380829
809.50000, 
810.00000,0.379410
810.50000, 
811.00000,0.378525
811.50000, 
812.00000,0.376923
812.50000, 
813.00000,0.375809
813.50000, 
814.00000,0.374680
814.50000, 
815.00000,0.373428
815.50000, 
816.00000,0.372040
816.50000, 
817.00000,0.370911
817.50000, 
818.00000,0.369354
818.50000, 
819.00000,0.368134
819.50000, 
820.00000,0.366974
820.50000, 
821.00000,0.365356
821.50000, 
822.00000,0.364090
822.50000, 
823.00000,0.362732
823.50000, 
824.00000,0.361252
824.50000, 
825.00000,0.359695
825.50000, 
826.00000,0.358551
826.50000, 
827.00000,0.356674
827.50000, 
828.00000,0.355240
828.50000, 
829.00000,0.353806
829.50000, 
830.00000,0.352219
830.50000, 
831.00000,0.350479
831.50000, 
832.00000,0.349060
832.50000, 
833.00000,0.347305
833.50000, 
834.00000,0.345459
834.50000, 
835.00000,0.344162
835.50000, 
836.00000,0.342224
836.50000, 
837.00000,0.340546
837.50000, 
838.00000,0.339035
838.50000, 
839.00000,0.337357
839.50000, 
840.00000,0.335342
840.50000, 
841.00000,0.333984
841.50000, 
842.00000,0.332291
842.50000, 
843.00000,0.330322
843.50000, 
844.00000,0.328857
844.50000, 
845.00000,0.327133
845.50000, 
846.00000,0.325455
846.50000, 
847.00000,0.323654
847.50000, 
848.00000,0.322159
848.50000, 
849.00000,0.320129
849.50000, 
850.00000,0.318283
850.50000, 
851.00000,0.316742
851.50000, 
852.00000,0.314758
852.50000, 
853.00000,0.312943
853.50000, 
854.00000,0.311203
854.50000, 
855.00000,0.309616
855.50000, 
856.00000,0.307617
856.50000, 
857.00000,0.306152
857.50000, 
858.00000,0.304276
858.50000, 
859.00000,0.302536
859.50000, 
860.00000,0.300919
860.50000, 
861.00000,0.299255
861.50000, 
862.00000,0.297607
862.50000, 
863.00000,0.295959
863.50000, 
864.00000,0.294647
864.50000, 
865.00000,0.292892
865.50000, 
866.00000,0.291351
866.50000, 
867.00000,0.289963
867.50000, 
868.00000,0.288284
868.50000, 
869.00000,0.286835
869.50000, 
870.00000,0.285370
870.50000, 
871.00000,0.284027
871.50000, 
872.00000,0.282455
872.50000, 
873.00000,0.280975
873.50000, 
874.00000,0.279877
874.50000, 
875.00000,0.278214
875.50000, 
876.00000,0.276794
876.50000, 
877.00000,0.275391
877.50000, 
878.00000,0.274094
878.50000, 
879.00000,0.272675
879.50000, 
880.00000,0.271362
880.50000, 
881.00000,0.270416
881.50000, 
882.00000,0.269028
882.50000, 
883.00000,0.267700
883.50000, 
884.00000,0.266663
884.50000, 
885.00000,0.265488
885.50000, 
886.00000,0.264374
886.50000, 
887.00000,0.263245
887.50000, 
888.00000,0.262390
888.50000, 
889.00000,0.261353
889.50000, 
890.00000,0.260162
890.50000, 
891.00000,0.259369
891.50000, 
892.00000,0.258224
892.50000, 
893.00000,0.257339
893.50000, 
894.00000,0.256378
894.50000, 
895.00000,0.255356
895.50000, 
896.00000,0.254807
896.50000, 
897.00000,0.253891
897.50000, 
898.00000,0.253067
898.50000, 
899.00000,0.252411
899.50000, 
900.00000,0.251907
900.50000, 
901.00000, 
901.50000, 
902.00000, 
902.50000, 
903.00000, 
903.50000, 
904.00000, 
904.50000, 
905.00000, 
905.50000, 
906.00000, 
906.50000, 
907.00000, 
907.50000, 
908.00000, 
908.50000, 
909.00000, 
909.50000, 
910.00000, 
910.50000, 
911.00000, 
911.50000, 
912.00000, 
912.50000, 
913.00000, 
913.50000, 
914.00000, 
914.50000, 
915.00000, 
915.50000, 
916.00000, 
916.50000, 
917.00000, 
917.50000, 
918.00000, 
918.50000, 
919.00000, 
919.50000, 
920.00000, 
920.50000, 
921.00000, 
921.50000, 
922.00000, 
922.50000, 
923.00000, 
923.50000, 
924.00000, 
924.50000, 
925.00000, 
925.50000, 
926.00000, 
926.50000, 
927.00000, 
927.50000, 
928.00000, 
928.50000, 
929.00000, 
929.50000, 
930.00000, 
930.50000, 
931.00000, 
931.50000, 
932.00000, 
932.50000, 
933.00000, 
933.50000, 
934.00000, 
934.50000, 
935.00000, 
935.50000, 
936.00000, 
936.50000, 
937.00000, 
937.50000, 
938.00000, 
938.50000, 
939.00000, 
939.50000, 
940.00000, 
940.50000, 
941.00000, 
941.50000, 
942.00000, 
942.50000, 
943.00000, 
943.50000, 
944.00000, 
944.50000, 
945.00000, 
945.50000, 
946.00000, 
946.50000, 
947.00000, 
947.50000, 
948.00000, 
948.50000, 
949.00000, 
949.50000, 
950.00000, 
950.50000, 
951.00000, 
951.50000, 
952.00000, 
952.50000, 
953.00000, 
953.50000, 
954.00000, 
954.50000, 
955.00000, 
955.50000, 
956.00000, 
956.50000, 
957.00000, 
957.50000, 
958.00000, 
958.50000, 
959.00000, 
959.50000, 
960.00000, 
960.50000, 
961.00000, 
961.50000, 
962.00000, 
962.50000, 
963.00000, 
963.50000, 
964.00000, 
964.50000, 
965.00000, 
965.50000, 
966.00000, 
966.50000, 
967.00000, 
967.50000, 
968.00000, 
968.50000, 
969.00000, 
969.50000, 
970.00000, 
970.50000, 
971.00000, 
971.50000, 
972.00000, 
972.50000, 
973.00000, 
973.50000, 
974.00000, 
974.50000, 
975.00000, 
975.50000, 
976.00000, 
976.50000, 
977.00000, 
977.50000, 
978.00000, 
978.50000, 
979.00000, 
979.50000, 
980.00000, 
980.50000, 
981.00000, 
981.50000, 
982.00000, 
982.50000, 
983.00000, 
983.50000, 
984.00000, 
984.50000, 
985.00000, 
985.50000, 
986.00000, 
986.50000, 
987.00000, 
987.50000, 
988.00000, 
988.50000, 
989.00000, 
989.50000, 
990.00000, 
990.50000, 
991.00000, 
991.50000, 
992.00000, 
992.50000, 
993.00000, 
993.50000, 
994.00000, 
994.50000, 
995.00000, 
995.50000, 
996.00000, 
996.50000, 
997.00000, 
997.50000, 
998.00000, 
998.50000, 
999.00000, 
999.50000, 
1000.00000, 
1000.50000, 
1001.00000, 
1001.50000, 
1002.00000, 
1002.50000, 
1003.00000, 
1003.50000, 
1004.00000, 
1004.50000, 
1005.00000, 
1005.50000, 
1006.00000, 
1006.50000, 
1007.00000, 
1007.50000, 
1008.00000, 
1008.50000, 
1009.00000, 
1009.50000, 
1010.00000, 
1010.50000, 
1011.00000, 
1011.50000, 
1012.00000, 
1012.50000, 
1013.00000, 
1013.50000, 
1014.00000, 
1014.50000, 
1015.00000, 
1015.50000, 
1016.00000, 
1016.50000, 
1017.00000, 
1017.50000, 
1018.00000, 
1018.50000, 
1019.00000, 
1019.50000, 
1020.00000, 
1020.50000, 
1021.00000, 
1021.50000, 
1022.00000, 
1022.50000, 
1023.00000, 
1023.50000, 
1024.00000, 
1024.50000, 
1025.00000, 
1025.50000, 
1026.00000, 
1026.50000, 
1027.00000, 
1027.50000, 
1028.00000, 
1028.50000, 
1029.00000, 
1029.50000, 
1030.00000, 
1030.50000, 
1031.00000, 
1031.50000, 
1032.00000, 
1032.50000, 
1033.00000, 
1033.50000, 
1034.00000, 
1034.50000, 
1035.00000, 
1035.50000, 
1036.00000, 
1036.50000, 
1037.00000, 
1037.50000, 
1038.00000, 
1038.50000, 
1039.00000, 
1039.50000, 
1040.00000, 
1040.50000, 
1041.00000, 
1041.50000, 
1042.00000, 
1042.50000, 
1043.00000, 
1043.50000, 
1044.00000, 
1044.50000, 
1045.00000, 
1045.50000, 
1046.00000, 
1046.50000, 
1047.00000, 
1047.50000, 
1048.00000, 
1048.50000, 
1049.00000, 
1049.50000, 
1050.00000, 
1050.50000, 
1051.00000, 
1051.50000, 
1052.00000, 
1052.50000, 
1053.00000, 
1053.50000, 
1054.00000, 
1054.50000, 
1055.00000, 
1055.50000, 
1056.00000, 
1056.50000, 
1057.00000, 
1057.50000, 
1058.00000, 
1058.50000, 
1059.00000, 
1059.50000, 
1060.00000, 
1060.50000, 
1061.00000, 
1061.50000, 
1062.00000, 
1062.50000, 
1063.00000, 
1063.50000, 
1064.00000, 
1064.50000, 
1065.00000, 
1065.50000, 
1066.00000, 
1066.50000, 
1067.00000, 
1067.50000, 
1068.00000, 
1068.50000, 
1069.00000, 
1069.50000, 
1070.00000, 
1070.50000, 
1071.00000, 
1071.50000, 
1072.00000, 
1072.50000, 
1073.00000, 
1073.50000, 
1074.00000, 
1074.50000, 
1075.00000, 
1075.50000, 
1076.00000, 
1076.50000, 
1077.00000, 
1077.50000, 
1078.00000, 
1078.50000, 
1079.00000, 
1079.50000, 
1080.00000, 
1080.50000, 
1081.00000, 
1081.50000, 
1082.00000, 
1082.50000, 
1083.00000, 
1083.50000, 
1084.00000, 
1084.50000, 
1085.00000, 
1085.50000, 
1086.00000, 
1086.50000, 
1087.00000, 
1087.50000, 
1088.00000, 
1088.50000, 
1089.00000, 
1089.50000, 
1090.00000, 
1090.50000, 
1091.00000, 
1091.50000, 
1092.00000, 
1092.50000, 
1093.00000, 
1093.50000, 
1094.00000, 
1094.50000, 
1095.00000, 
1095.50000, 
1096.00000, 
1096.50000, 
1097.00000, 
1097.50000, 
1098.00000, 
1098.50000, 
1099.00000, 
1099.50000, 
1100.00000, 
