"50% Tension - RawData"
"Wavelength nm.","Abs."
300.00000,0.364212
300.50000, 
301.00000,0.362808
301.50000, 
302.00000,0.361267
302.50000, 
303.00000,0.359543
303.50000, 
304.00000,0.358414
304.50000, 
305.00000,0.357574
305.50000, 
306.00000,0.357483
306.50000, 
307.00000,0.356674
307.50000, 
308.00000,0.356277
308.50000, 
309.00000,0.355545
309.50000, 
310.00000,0.354691
310.50000, 
311.00000,0.354385
311.50000, 
312.00000,0.354065
312.50000, 
313.00000,0.353760
313.50000, 
314.00000,0.353409
314.50000, 
315.00000,0.353195
315.50000, 
316.00000,0.353241
316.50000, 
317.00000,0.353439
317.50000, 
318.00000,0.353485
318.50000, 
319.00000,0.353958
319.50000, 
320.00000,0.354294
320.50000, 
321.00000,0.354599
321.50000, 
322.00000,0.355194
322.50000, 
323.00000,0.355835
323.50000, 
324.00000,0.356567
324.50000, 
325.00000,0.357285
325.50000, 
326.00000,0.357849
326.50000, 
327.00000,0.358734
327.50000, 
328.00000,0.359772
328.50000, 
329.00000,0.360779
329.50000, 
330.00000,0.361755
330.50000, 
331.00000,0.363022
331.50000, 
332.00000,0.364273
332.50000, 
333.00000,0.365570
333.50000, 
334.00000,0.367035
334.50000, 
335.00000,0.367752
335.50000, 
336.00000,0.369171
336.50000, 
337.00000,0.370605
337.50000, 
338.00000,0.371826
338.50000, 
339.00000,0.373566
339.50000, 
340.00000,0.373642
340.50000, 
341.00000,0.373093
341.50000, 
342.00000,0.374420
342.50000, 
343.00000,0.376099
343.50000, 
344.00000,0.377579
344.50000, 
345.00000,0.379211
345.50000, 
346.00000,0.380768
346.50000, 
347.00000,0.381927
347.50000, 
348.00000,0.383698
348.50000, 
349.00000,0.385941
349.50000, 
350.00000,0.387650
350.50000, 
351.00000,0.389587
351.50000, 
352.00000,0.391479
352.50000, 
353.00000,0.393356
353.50000, 
354.00000,0.395737
354.50000, 
355.00000,0.397736
355.50000, 
356.00000,0.399384
356.50000, 
357.00000,0.401443
357.50000, 
358.00000,0.403107
358.50000, 
359.00000,0.405609
359.50000, 
360.00000,0.408188
360.50000, 
361.00000,0.409683
361.50000, 
362.00000,0.412094
362.50000, 
363.00000,0.414337
363.50000, 
364.00000,0.416519
364.50000, 
365.00000,0.418121
365.50000, 
366.00000,0.420547
366.50000, 
367.00000,0.422791
367.50000, 
368.00000,0.424850
368.50000, 
369.00000,0.427429
369.50000, 
370.00000,0.430252
370.50000, 
371.00000,0.432663
371.50000, 
372.00000,0.435013
372.50000, 
373.00000,0.437836
373.50000, 
374.00000,0.440582
374.50000, 
375.00000,0.443283
375.50000, 
376.00000,0.446152
376.50000, 
377.00000,0.449020
377.50000, 
378.00000,0.451767
378.50000, 
379.00000,0.454346
379.50000, 
380.00000,0.457336
380.50000, 
381.00000,0.460342
381.50000, 
382.00000,0.463516
382.50000, 
383.00000,0.466919
383.50000, 
384.00000,0.470474
384.50000, 
385.00000,0.473480
385.50000, 
386.00000,0.477249
386.50000, 
387.00000,0.480591
387.50000, 
388.00000,0.484512
388.50000, 
389.00000,0.488586
389.50000, 
390.00000,0.492889
390.50000, 
391.00000,0.497452
391.50000, 
392.00000,0.501831
392.50000, 
393.00000,0.506332
393.50000, 
394.00000,0.510666
394.50000, 
395.00000,0.514954
395.50000, 
396.00000,0.519333
396.50000, 
397.00000,0.523560
397.50000, 
398.00000,0.527542
398.50000, 
399.00000,0.531540
399.50000, 
400.00000,0.535507
400.50000, 
401.00000,0.539658
401.50000, 
402.00000,0.543610
402.50000, 
403.00000,0.547272
403.50000, 
404.00000,0.551376
404.50000, 
405.00000,0.555344
405.50000, 
406.00000,0.559296
406.50000, 
407.00000,0.563354
407.50000, 
408.00000,0.567505
408.50000, 
409.00000,0.571762
409.50000, 
410.00000,0.576233
410.50000, 
411.00000,0.580383
411.50000, 
412.00000,0.584579
412.50000, 
413.00000,0.588913
413.50000, 
414.00000,0.593384
414.50000, 
415.00000,0.597702
415.50000, 
416.00000,0.602234
416.50000, 
417.00000,0.607880
417.50000, 
418.00000,0.612610
418.50000, 
419.00000,0.617386
419.50000, 
420.00000,0.622009
420.50000, 
421.00000,0.626968
421.50000, 
422.00000,0.632095
422.50000, 
423.00000,0.637375
423.50000, 
424.00000,0.642487
424.50000, 
425.00000,0.648102
425.50000, 
426.00000,0.653656
426.50000, 
427.00000,0.658905
427.50000, 
428.00000,0.664246
428.50000, 
429.00000,0.669846
429.50000, 
430.00000,0.675415
430.50000, 
431.00000,0.681152
431.50000, 
432.00000,0.686935
432.50000, 
433.00000,0.692657
433.50000, 
434.00000,0.698303
434.50000, 
435.00000,0.703995
435.50000, 
436.00000,0.709351
436.50000, 
437.00000,0.714905
437.50000, 
438.00000,0.720810
438.50000, 
439.00000,0.726624
439.50000, 
440.00000,0.732422
440.50000, 
441.00000,0.738113
441.50000, 
442.00000,0.744141
442.50000, 
443.00000,0.749771
443.50000, 
444.00000,0.755600
444.50000, 
445.00000,0.761368
445.50000, 
446.00000,0.767105
446.50000, 
447.00000,0.773209
447.50000, 
448.00000,0.779434
448.50000, 
449.00000,0.785553
449.50000, 
450.00000,0.791351
450.50000, 
451.00000,0.797546
451.50000, 
452.00000,0.803711
452.50000, 
453.00000,0.809570
453.50000, 
454.00000,0.815765
454.50000, 
455.00000,0.821915
455.50000, 
456.00000,0.827866
456.50000, 
457.00000,0.833847
457.50000, 
458.00000,0.839981
458.50000, 
459.00000,0.845840
459.50000, 
460.00000,0.851578
460.50000, 
461.00000,0.857468
461.50000, 
462.00000,0.863373
462.50000, 
463.00000,0.868820
463.50000, 
464.00000,0.874527
464.50000, 
465.00000,0.879944
465.50000, 
466.00000,0.885269
466.50000, 
467.00000,0.889832
467.50000, 
468.00000,0.894165
468.50000, 
469.00000,0.899338
469.50000, 
470.00000,0.905533
470.50000, 
471.00000,0.911530
471.50000, 
472.00000,0.918289
472.50000, 
473.00000,0.924927
473.50000, 
474.00000,0.931778
474.50000, 
475.00000,0.938614
475.50000, 
476.00000,0.946014
476.50000, 
477.00000,0.953278
477.50000, 
478.00000,0.960693
478.50000, 
479.00000,0.968964
479.50000, 
480.00000,0.976868
480.50000, 
481.00000,0.984711
481.50000, 
482.00000,0.992828
482.50000, 
483.00000,1.000900
483.50000, 
484.00000,1.008347
484.50000, 
485.00000,1.015137
485.50000, 
486.00000,1.021240
486.50000, 
487.00000,1.026672
487.50000, 
488.00000,1.031601
488.50000, 
489.00000,1.035858
489.50000, 
490.00000,1.039566
490.50000, 
491.00000,1.042709
491.50000, 
492.00000,1.045547
492.50000, 
493.00000,1.048141
493.50000, 
494.00000,1.050491
494.50000, 
495.00000,1.052628
495.50000, 
496.00000,1.054611
496.50000, 
497.00000,1.056625
497.50000, 
498.00000,1.058640
498.50000, 
499.00000,1.060516
499.50000, 
500.00000,1.062210
500.50000, 
501.00000,1.063934
501.50000, 
502.00000,1.065384
502.50000, 
503.00000,1.066879
503.50000, 
504.00000,1.068237
504.50000, 
505.00000,1.069321
505.50000, 
506.00000,1.070129
506.50000, 
507.00000,1.071075
507.50000, 
508.00000,1.071808
508.50000, 
509.00000,1.072189
509.50000, 
510.00000,1.072479
510.50000, 
511.00000,1.072601
511.50000, 
512.00000,1.072342
512.50000, 
513.00000,1.072006
513.50000, 
514.00000,1.071548
514.50000, 
515.00000,1.070877
515.50000, 
516.00000,1.069901
516.50000, 
517.00000,1.068924
517.50000, 
518.00000,1.067703
518.50000, 
519.00000,1.066315
519.50000, 
520.00000,1.064651
520.50000, 
521.00000,1.062927
521.50000, 
522.00000,1.061218
522.50000, 
523.00000,1.059387
523.50000, 
524.00000,1.057404
524.50000, 
525.00000,1.055374
525.50000, 
526.00000,1.053482
526.50000, 
527.00000,1.051498
527.50000, 
528.00000,1.049545
528.50000, 
529.00000,1.047791
529.50000, 
530.00000,1.045898
530.50000, 
531.00000,1.044220
531.50000, 
532.00000,1.042679
532.50000, 
533.00000,1.041000
533.50000, 
534.00000,1.039459
534.50000, 
535.00000,1.038147
535.50000, 
536.00000,1.035919
536.50000, 
537.00000,1.033234
537.50000, 
538.00000,1.031784
538.50000, 
539.00000,1.030396
539.50000, 
540.00000,1.028946
540.50000, 
541.00000,1.027466
541.50000, 
542.00000,1.025772
542.50000, 
543.00000,1.024063
543.50000, 
544.00000,1.022110
544.50000, 
545.00000,1.019928
545.50000, 
546.00000,1.017441
546.50000, 
547.00000,1.014709
547.50000, 
548.00000,1.011719
548.50000, 
549.00000,1.008209
549.50000, 
550.00000,1.004440
550.50000, 
551.00000,1.000458
551.50000, 
552.00000,0.995911
552.50000, 
553.00000,0.990921
553.50000, 
554.00000,0.985596
554.50000, 
555.00000,0.980072
555.50000, 
556.00000,0.973907
556.50000, 
557.00000,0.967682
557.50000, 
558.00000,0.961044
558.50000, 
559.00000,0.953674
559.50000, 
560.00000,0.946289
560.50000, 
561.00000,0.938675
561.50000, 
562.00000,0.931015
562.50000, 
563.00000,0.922928
563.50000, 
564.00000,0.914673
564.50000, 
565.00000,0.906219
565.50000, 
566.00000,0.897629
566.50000, 
567.00000,0.889206
567.50000, 
568.00000,0.880936
568.50000, 
569.00000,0.872208
569.50000, 
570.00000,0.863129
570.50000, 
571.00000,0.854279
571.50000, 
572.00000,0.845795
572.50000, 
573.00000,0.837387
573.50000, 
574.00000,0.829407
574.50000, 
575.00000,0.821640
575.50000, 
576.00000,0.814240
576.50000, 
577.00000,0.807129
577.50000, 
578.00000,0.800583
578.50000, 
579.00000,0.794113
579.50000, 
580.00000,0.788208
580.50000, 
581.00000,0.782974
581.50000, 
582.00000,0.777847
582.50000, 
583.00000,0.773239
583.50000, 
584.00000,0.769012
584.50000, 
585.00000,0.764984
585.50000, 
586.00000,0.760986
586.50000, 
587.00000,0.757431
587.50000, 
588.00000,0.753983
588.50000, 
589.00000,0.750748
589.50000, 
590.00000,0.747559
590.50000, 
591.00000,0.744324
591.50000, 
592.00000,0.741226
592.50000, 
593.00000,0.737671
593.50000, 
594.00000,0.734116
594.50000, 
595.00000,0.730133
595.50000, 
596.00000,0.725983
596.50000, 
597.00000,0.721283
597.50000, 
598.00000,0.716278
598.50000, 
599.00000,0.710678
599.50000, 
600.00000,0.704529
600.50000, 
601.00000,0.697693
601.50000, 
602.00000,0.690353
602.50000, 
603.00000,0.682755
603.50000, 
604.00000,0.674500
604.50000, 
605.00000,0.665848
605.50000, 
606.00000,0.656738
606.50000, 
607.00000,0.646790
607.50000, 
608.00000,0.636261
608.50000, 
609.00000,0.625214
609.50000, 
610.00000,0.613770
610.50000, 
611.00000,0.602020
611.50000, 
612.00000,0.590195
612.50000, 
613.00000,0.577911
613.50000, 
614.00000,0.565384
614.50000, 
615.00000,0.552795
615.50000, 
616.00000,0.539520
616.50000, 
617.00000,0.525909
617.50000, 
618.00000,0.511948
618.50000, 
619.00000,0.497711
619.50000, 
620.00000,0.483688
620.50000, 
621.00000,0.470139
621.50000, 
622.00000,0.456406
622.50000, 
623.00000,0.443008
623.50000, 
624.00000,0.430115
624.50000, 
625.00000,0.417313
625.50000, 
626.00000,0.404907
626.50000, 
627.00000,0.393005
627.50000, 
628.00000,0.381577
628.50000, 
629.00000,0.370148
629.50000, 
630.00000,0.359818
630.50000, 
631.00000,0.351120
631.50000, 
632.00000,0.342941
632.50000, 
633.00000,0.335251
633.50000, 
634.00000,0.328049
634.50000, 
635.00000,0.321335
635.50000, 
636.00000,0.315369
636.50000, 
637.00000,0.309540
637.50000, 
638.00000,0.303986
638.50000, 
639.00000,0.298508
639.50000, 
640.00000,0.293488
640.50000, 
641.00000,0.288467
641.50000, 
642.00000,0.283417
642.50000, 
643.00000,0.278595
643.50000, 
644.00000,0.273865
644.50000, 
645.00000,0.269394
645.50000, 
646.00000,0.265305
646.50000, 
647.00000,0.261368
647.50000, 
648.00000,0.257706
648.50000, 
649.00000,0.254318
649.50000, 
650.00000,0.251190
650.50000, 
651.00000,0.248306
651.50000, 
652.00000,0.245621
652.50000, 
653.00000,0.243195
653.50000, 
654.00000,0.240906
654.50000, 
655.00000,0.238739
655.50000, 
656.00000,0.236710
656.50000, 
657.00000,0.234833
657.50000, 
658.00000,0.233124
658.50000, 
659.00000,0.231461
659.50000, 
660.00000,0.229980
660.50000, 
661.00000,0.228531
661.50000, 
662.00000,0.227249
662.50000, 
663.00000,0.225937
663.50000, 
664.00000,0.224731
664.50000, 
665.00000,0.223618
665.50000, 
666.00000,0.222488
666.50000, 
667.00000,0.221436
667.50000, 
668.00000,0.220413
668.50000, 
669.00000,0.219467
669.50000, 
670.00000,0.218582
670.50000, 
671.00000,0.217743
671.50000, 
672.00000,0.216965
672.50000, 
673.00000,0.216202
673.50000, 
674.00000,0.215378
674.50000, 
675.00000,0.214676
675.50000, 
676.00000,0.214050
676.50000, 
677.00000,0.213394
677.50000, 
678.00000,0.212830
678.50000, 
679.00000,0.212265
679.50000, 
680.00000,0.211716
680.50000, 
681.00000,0.211212
681.50000, 
682.00000,0.210739
682.50000, 
683.00000,0.210281
683.50000, 
684.00000,0.209763
684.50000, 
685.00000,0.209244
685.50000, 
686.00000,0.208801
686.50000, 
687.00000,0.208405
687.50000, 
688.00000,0.207993
688.50000, 
689.00000,0.207626
689.50000, 
690.00000,0.207199
690.50000, 
691.00000,0.206741
691.50000, 
692.00000,0.206421
692.50000, 
693.00000,0.205963
693.50000, 
694.00000,0.205612
694.50000, 
695.00000,0.205353
695.50000, 
696.00000,0.204910
696.50000, 
697.00000,0.204559
697.50000, 
698.00000,0.204239
698.50000, 
699.00000,0.203949
699.50000, 
700.00000,0.203674
700.50000, 
701.00000,0.203323
701.50000, 
702.00000,0.202957
702.50000, 
703.00000,0.202667
703.50000, 
704.00000,0.202316
704.50000, 
705.00000,0.202072
705.50000, 
706.00000,0.201813
706.50000, 
707.00000,0.201523
707.50000, 
708.00000,0.201202
708.50000, 
709.00000,0.201035
709.50000, 
710.00000,0.200806
710.50000, 
711.00000,0.200500
711.50000, 
712.00000,0.200211
712.50000, 
713.00000,0.199936
713.50000, 
714.00000,0.199646
714.50000, 
715.00000,0.199432
715.50000, 
716.00000,0.199158
716.50000, 
717.00000,0.198898
717.50000, 
718.00000,0.198669
718.50000, 
719.00000,0.198410
719.50000, 
720.00000,0.198120
720.50000, 
721.00000,0.197906
721.50000, 
722.00000,0.197662
722.50000, 
723.00000,0.197449
723.50000, 
724.00000,0.197266
724.50000, 
725.00000,0.197052
725.50000, 
726.00000,0.196854
726.50000, 
727.00000,0.196609
727.50000, 
728.00000,0.196365
728.50000, 
729.00000,0.196198
729.50000, 
730.00000,0.195984
730.50000, 
731.00000,0.195801
731.50000, 
732.00000,0.195648
732.50000, 
733.00000,0.195465
733.50000, 
734.00000,0.195282
734.50000, 
735.00000,0.195053
735.50000, 
736.00000,0.194901
736.50000, 
737.00000,0.194702
737.50000, 
738.00000,0.194458
738.50000, 
739.00000,0.194290
739.50000, 
740.00000,0.194122
740.50000, 
741.00000,0.193817
741.50000, 
742.00000,0.193558
742.50000, 
743.00000,0.193390
743.50000, 
744.00000,0.193146
744.50000, 
745.00000,0.192917
745.50000, 
746.00000,0.192703
746.50000, 
747.00000,0.192535
747.50000, 
748.00000,0.192383
748.50000, 
749.00000,0.192230
749.50000, 
750.00000,0.192062
750.50000, 
751.00000,0.191833
751.50000, 
752.00000,0.191635
752.50000, 
753.00000,0.191483
753.50000, 
754.00000,0.191299
754.50000, 
755.00000,0.191086
755.50000, 
756.00000,0.190964
756.50000, 
757.00000,0.190811
757.50000, 
758.00000,0.190628
758.50000, 
759.00000,0.190460
759.50000, 
760.00000,0.190338
760.50000, 
761.00000,0.190155
761.50000, 
762.00000,0.189972
762.50000, 
763.00000,0.189743
763.50000, 
764.00000,0.189575
764.50000, 
765.00000,0.189438
765.50000, 
766.00000,0.189255
766.50000, 
767.00000,0.189026
767.50000, 
768.00000,0.188858
768.50000, 
769.00000,0.188690
769.50000, 
770.00000,0.188538
770.50000, 
771.00000,0.188385
771.50000, 
772.00000,0.188232
772.50000, 
773.00000,0.188110
773.50000, 
774.00000,0.187927
774.50000, 
775.00000,0.187744
775.50000, 
776.00000,0.187592
776.50000, 
777.00000,0.187439
777.50000, 
778.00000,0.187225
778.50000, 
779.00000,0.187119
779.50000, 
780.00000,0.186981
780.50000, 
781.00000,0.186829
781.50000, 
782.00000,0.186676
782.50000, 
783.00000,0.186539
783.50000, 
784.00000,0.186386
784.50000, 
785.00000,0.186218
785.50000, 
786.00000,0.186066
786.50000, 
787.00000,0.185928
787.50000, 
788.00000,0.185791
788.50000, 
789.00000,0.185669
789.50000, 
790.00000,0.185501
790.50000, 
791.00000,0.185349
791.50000, 
792.00000,0.185196
792.50000, 
793.00000,0.185089
793.50000, 
794.00000,0.184891
794.50000, 
795.00000,0.184753
795.50000, 
796.00000,0.184708
796.50000, 
797.00000,0.184601
797.50000, 
798.00000,0.184387
798.50000, 
799.00000,0.184280
799.50000, 
800.00000,0.184204
800.50000, 
801.00000,0.184082
801.50000, 
802.00000,0.183914
802.50000, 
803.00000,0.183746
803.50000, 
804.00000,0.183563
804.50000, 
805.00000,0.183426
805.50000, 
806.00000,0.183334
806.50000, 
807.00000,0.183304
807.50000, 
808.00000,0.183121
808.50000, 
809.00000,0.183029
809.50000, 
810.00000,0.182846
810.50000, 
811.00000,0.182678
811.50000, 
812.00000,0.182510
812.50000, 
813.00000,0.182404
813.50000, 
814.00000,0.182281
814.50000, 
815.00000,0.182297
815.50000, 
816.00000,0.182068
816.50000, 
817.00000,0.181915
817.50000, 
818.00000,0.181808
818.50000, 
819.00000,0.181641
819.50000, 
820.00000,0.181564
820.50000, 
821.00000,0.181503
821.50000, 
822.00000,0.181396
822.50000, 
823.00000,0.181229
823.50000, 
824.00000,0.181152
824.50000, 
825.00000,0.181000
825.50000, 
826.00000,0.180908
826.50000, 
827.00000,0.180771
827.50000, 
828.00000,0.180679
828.50000, 
829.00000,0.180573
829.50000, 
830.00000,0.180466
830.50000, 
831.00000,0.180405
831.50000, 
832.00000,0.180359
832.50000, 
833.00000,0.180313
833.50000, 
834.00000,0.180084
834.50000, 
835.00000,0.180008
835.50000, 
836.00000,0.179932
836.50000, 
837.00000,0.179794
837.50000, 
838.00000,0.179718
838.50000, 
839.00000,0.179611
839.50000, 
840.00000,0.179520
840.50000, 
841.00000,0.179459
841.50000, 
842.00000,0.179382
842.50000, 
843.00000,0.179214
843.50000, 
844.00000,0.179092
844.50000, 
845.00000,0.179031
845.50000, 
846.00000,0.178940
846.50000, 
847.00000,0.178848
847.50000, 
848.00000,0.178757
848.50000, 
849.00000,0.178665
849.50000, 
850.00000,0.178574
850.50000, 
851.00000,0.178497
851.50000, 
852.00000,0.178375
852.50000, 
853.00000,0.178314
853.50000, 
854.00000,0.178177
854.50000, 
855.00000,0.178146
855.50000, 
856.00000,0.178070
856.50000, 
857.00000,0.177963
857.50000, 
858.00000,0.177948
858.50000, 
859.00000,0.177765
859.50000, 
860.00000,0.177612
860.50000, 
861.00000,0.177597
861.50000, 
862.00000,0.177567
862.50000, 
863.00000,0.177505
863.50000, 
864.00000,0.177353
864.50000, 
865.00000,0.177307
865.50000, 
866.00000,0.177277
866.50000, 
867.00000,0.177170
867.50000, 
868.00000,0.177078
868.50000, 
869.00000,0.176941
869.50000, 
870.00000,0.176941
870.50000, 
871.00000,0.176819
871.50000, 
872.00000,0.176758
872.50000, 
873.00000,0.176758
873.50000, 
874.00000,0.176743
874.50000, 
875.00000,0.176666
875.50000, 
876.00000,0.176529
876.50000, 
877.00000,0.176468
877.50000, 
878.00000,0.176300
878.50000, 
879.00000,0.176239
879.50000, 
880.00000,0.176163
880.50000, 
881.00000,0.176071
881.50000, 
882.00000,0.176056
882.50000, 
883.00000,0.176010
883.50000, 
884.00000,0.175949
884.50000, 
885.00000,0.175919
885.50000, 
886.00000,0.175842
886.50000, 
887.00000,0.175873
887.50000, 
888.00000,0.175919
888.50000, 
889.00000,0.175858
889.50000, 
890.00000,0.175751
890.50000, 
891.00000,0.175781
891.50000, 
892.00000,0.175735
892.50000, 
893.00000,0.175735
893.50000, 
894.00000,0.175873
894.50000, 
895.00000,0.175995
895.50000, 
896.00000,0.175995
896.50000, 
897.00000,0.176117
897.50000, 
898.00000,0.176270
898.50000, 
899.00000,0.176392
899.50000, 
900.00000,0.176483
900.50000, 
901.00000, 
901.50000, 
902.00000, 
902.50000, 
903.00000, 
903.50000, 
904.00000, 
904.50000, 
905.00000, 
905.50000, 
906.00000, 
906.50000, 
907.00000, 
907.50000, 
908.00000, 
908.50000, 
909.00000, 
909.50000, 
910.00000, 
910.50000, 
911.00000, 
911.50000, 
912.00000, 
912.50000, 
913.00000, 
913.50000, 
914.00000, 
914.50000, 
915.00000, 
915.50000, 
916.00000, 
916.50000, 
917.00000, 
917.50000, 
918.00000, 
918.50000, 
919.00000, 
919.50000, 
920.00000, 
920.50000, 
921.00000, 
921.50000, 
922.00000, 
922.50000, 
923.00000, 
923.50000, 
924.00000, 
924.50000, 
925.00000, 
925.50000, 
926.00000, 
926.50000, 
927.00000, 
927.50000, 
928.00000, 
928.50000, 
929.00000, 
929.50000, 
930.00000, 
930.50000, 
931.00000, 
931.50000, 
932.00000, 
932.50000, 
933.00000, 
933.50000, 
934.00000, 
934.50000, 
935.00000, 
935.50000, 
936.00000, 
936.50000, 
937.00000, 
937.50000, 
938.00000, 
938.50000, 
939.00000, 
939.50000, 
940.00000, 
940.50000, 
941.00000, 
941.50000, 
942.00000, 
942.50000, 
943.00000, 
943.50000, 
944.00000, 
944.50000, 
945.00000, 
945.50000, 
946.00000, 
946.50000, 
947.00000, 
947.50000, 
948.00000, 
948.50000, 
949.00000, 
949.50000, 
950.00000, 
950.50000, 
951.00000, 
951.50000, 
952.00000, 
952.50000, 
953.00000, 
953.50000, 
954.00000, 
954.50000, 
955.00000, 
955.50000, 
956.00000, 
956.50000, 
957.00000, 
957.50000, 
958.00000, 
958.50000, 
959.00000, 
959.50000, 
960.00000, 
960.50000, 
961.00000, 
961.50000, 
962.00000, 
962.50000, 
963.00000, 
963.50000, 
964.00000, 
964.50000, 
965.00000, 
965.50000, 
966.00000, 
966.50000, 
967.00000, 
967.50000, 
968.00000, 
968.50000, 
969.00000, 
969.50000, 
970.00000, 
970.50000, 
971.00000, 
971.50000, 
972.00000, 
972.50000, 
973.00000, 
973.50000, 
974.00000, 
974.50000, 
975.00000, 
975.50000, 
976.00000, 
976.50000, 
977.00000, 
977.50000, 
978.00000, 
978.50000, 
979.00000, 
979.50000, 
980.00000, 
980.50000, 
981.00000, 
981.50000, 
982.00000, 
982.50000, 
983.00000, 
983.50000, 
984.00000, 
984.50000, 
985.00000, 
985.50000, 
986.00000, 
986.50000, 
987.00000, 
987.50000, 
988.00000, 
988.50000, 
989.00000, 
989.50000, 
990.00000, 
990.50000, 
991.00000, 
991.50000, 
992.00000, 
992.50000, 
993.00000, 
993.50000, 
994.00000, 
994.50000, 
995.00000, 
995.50000, 
996.00000, 
996.50000, 
997.00000, 
997.50000, 
998.00000, 
998.50000, 
999.00000, 
999.50000, 
1000.00000, 
1000.50000, 
1001.00000, 
1001.50000, 
1002.00000, 
1002.50000, 
1003.00000, 
1003.50000, 
1004.00000, 
1004.50000, 
1005.00000, 
1005.50000, 
1006.00000, 
1006.50000, 
1007.00000, 
1007.50000, 
1008.00000, 
1008.50000, 
1009.00000, 
1009.50000, 
1010.00000, 
1010.50000, 
1011.00000, 
1011.50000, 
1012.00000, 
1012.50000, 
1013.00000, 
1013.50000, 
1014.00000, 
1014.50000, 
1015.00000, 
1015.50000, 
1016.00000, 
1016.50000, 
1017.00000, 
1017.50000, 
1018.00000, 
1018.50000, 
1019.00000, 
1019.50000, 
1020.00000, 
1020.50000, 
1021.00000, 
1021.50000, 
1022.00000, 
1022.50000, 
1023.00000, 
1023.50000, 
1024.00000, 
1024.50000, 
1025.00000, 
1025.50000, 
1026.00000, 
1026.50000, 
1027.00000, 
1027.50000, 
1028.00000, 
1028.50000, 
1029.00000, 
1029.50000, 
1030.00000, 
1030.50000, 
1031.00000, 
1031.50000, 
1032.00000, 
1032.50000, 
1033.00000, 
1033.50000, 
1034.00000, 
1034.50000, 
1035.00000, 
1035.50000, 
1036.00000, 
1036.50000, 
1037.00000, 
1037.50000, 
1038.00000, 
1038.50000, 
1039.00000, 
1039.50000, 
1040.00000, 
1040.50000, 
1041.00000, 
1041.50000, 
1042.00000, 
1042.50000, 
1043.00000, 
1043.50000, 
1044.00000, 
1044.50000, 
1045.00000, 
1045.50000, 
1046.00000, 
1046.50000, 
1047.00000, 
1047.50000, 
1048.00000, 
1048.50000, 
1049.00000, 
1049.50000, 
1050.00000, 
1050.50000, 
1051.00000, 
1051.50000, 
1052.00000, 
1052.50000, 
1053.00000, 
1053.50000, 
1054.00000, 
1054.50000, 
1055.00000, 
1055.50000, 
1056.00000, 
1056.50000, 
1057.00000, 
1057.50000, 
1058.00000, 
1058.50000, 
1059.00000, 
1059.50000, 
1060.00000, 
1060.50000, 
1061.00000, 
1061.50000, 
1062.00000, 
1062.50000, 
1063.00000, 
1063.50000, 
1064.00000, 
1064.50000, 
1065.00000, 
1065.50000, 
1066.00000, 
1066.50000, 
1067.00000, 
1067.50000, 
1068.00000, 
1068.50000, 
1069.00000, 
1069.50000, 
1070.00000, 
1070.50000, 
1071.00000, 
1071.50000, 
1072.00000, 
1072.50000, 
1073.00000, 
1073.50000, 
1074.00000, 
1074.50000, 
1075.00000, 
1075.50000, 
1076.00000, 
1076.50000, 
1077.00000, 
1077.50000, 
1078.00000, 
1078.50000, 
1079.00000, 
1079.50000, 
1080.00000, 
1080.50000, 
1081.00000, 
1081.50000, 
1082.00000, 
1082.50000, 
1083.00000, 
1083.50000, 
1084.00000, 
1084.50000, 
1085.00000, 
1085.50000, 
1086.00000, 
1086.50000, 
1087.00000, 
1087.50000, 
1088.00000, 
1088.50000, 
1089.00000, 
1089.50000, 
1090.00000, 
1090.50000, 
1091.00000, 
1091.50000, 
1092.00000, 
1092.50000, 
1093.00000, 
1093.50000, 
1094.00000, 
1094.50000, 
1095.00000, 
1095.50000, 
1096.00000, 
1096.50000, 
1097.00000, 
1097.50000, 
1098.00000, 
1098.50000, 
1099.00000, 
1099.50000, 
1100.00000, 
