"0%V - RawData"
"Wavelength nm.","Abs."
300.00000,4.000000
300.50000, 
301.00000,3.977829
301.50000, 
302.00000,3.932281
302.50000, 
303.00000,3.972702
303.50000, 
304.00000,3.946960
304.50000, 
305.00000,3.999207
305.50000, 
306.00000,3.958878
306.50000, 
307.00000,3.974213
307.50000, 
308.00000,3.895035
308.50000, 
309.00000,3.996628
309.50000, 
310.00000,3.958786
310.50000, 
311.00000,4.000000
311.50000, 
312.00000,3.980453
312.50000, 
313.00000,4.000000
313.50000, 
314.00000,3.960876
314.50000, 
315.00000,3.976807
315.50000, 
316.00000,3.966110
316.50000, 
317.00000,3.934769
317.50000, 
318.00000,3.964142
318.50000, 
319.00000,3.963974
319.50000, 
320.00000,3.939682
320.50000, 
321.00000,3.967896
321.50000, 
322.00000,3.829193
322.50000, 
323.00000,3.995239
323.50000, 
324.00000,4.000000
324.50000, 
325.00000,3.970459
325.50000, 
326.00000,3.957031
326.50000, 
327.00000,4.000000
327.50000, 
328.00000,3.981995
328.50000, 
329.00000,4.000000
329.50000, 
330.00000,3.937180
330.50000, 
331.00000,3.932755
331.50000, 
332.00000,3.980713
332.50000, 
333.00000,3.930496
333.50000, 
334.00000,3.997650
334.50000, 
335.00000,3.951157
335.50000, 
336.00000,3.996704
336.50000, 
337.00000,3.924866
337.50000, 
338.00000,3.969391
338.50000, 
339.00000,4.000000
339.50000, 
340.00000,3.950592
340.50000, 
341.00000,3.999298
341.50000, 
342.00000,3.946106
342.50000, 
343.00000,3.957062
343.50000, 
344.00000,3.956070
344.50000, 
345.00000,4.000000
345.50000, 
346.00000,3.936005
346.50000, 
347.00000,4.000000
347.50000, 
348.00000,3.963455
348.50000, 
349.00000,4.000000
349.50000, 
350.00000,3.950745
350.50000, 
351.00000,3.877182
351.50000, 
352.00000,3.957520
352.50000, 
353.00000,4.000000
353.50000, 
354.00000,3.966919
354.50000, 
355.00000,3.984894
355.50000, 
356.00000,3.989548
356.50000, 
357.00000,4.000000
357.50000, 
358.00000,3.971054
358.50000, 
359.00000,3.979462
359.50000, 
360.00000,4.000000
360.50000, 
361.00000,3.780640
361.50000, 
362.00000,3.974976
362.50000, 
363.00000,4.000000
363.50000, 
364.00000,3.956680
364.50000, 
365.00000,3.885574
365.50000, 
366.00000,3.821014
366.50000, 
367.00000,3.976379
367.50000, 
368.00000,3.916107
368.50000, 
369.00000,3.940033
369.50000, 
370.00000,3.948807
370.50000, 
371.00000,3.935822
371.50000, 
372.00000,3.950607
372.50000, 
373.00000,3.985153
373.50000, 
374.00000,3.972214
374.50000, 
375.00000,3.993362
375.50000, 
376.00000,3.990097
376.50000, 
377.00000,3.934006
377.50000, 
378.00000,3.952850
378.50000, 
379.00000,3.981079
379.50000, 
380.00000,3.936523
380.50000, 
381.00000,3.909424
381.50000, 
382.00000,3.636124
382.50000, 
383.00000,3.368881
383.50000, 
384.00000,3.044556
384.50000, 
385.00000,2.752441
385.50000, 
386.00000,2.582047
386.50000, 
387.00000,2.398315
387.50000, 
388.00000,2.233887
388.50000, 
389.00000,2.079025
389.50000, 
390.00000,1.953323
390.50000, 
391.00000,1.833191
391.50000, 
392.00000,1.735321
392.50000, 
393.00000,1.650055
393.50000, 
394.00000,1.572357
394.50000, 
395.00000,1.511108
395.50000, 
396.00000,1.458801
396.50000, 
397.00000,1.415298
397.50000, 
398.00000,1.381607
398.50000, 
399.00000,1.352188
399.50000, 
400.00000,1.327881
400.50000, 
401.00000,1.306122
401.50000, 
402.00000,1.286835
402.50000, 
403.00000,1.269653
403.50000, 
404.00000,1.252914
404.50000, 
405.00000,1.238602
405.50000, 
406.00000,1.225708
406.50000, 
407.00000,1.213913
407.50000, 
408.00000,1.204254
408.50000, 
409.00000,1.196518
409.50000, 
410.00000,1.189453
410.50000, 
411.00000,1.184113
411.50000, 
412.00000,1.180115
412.50000, 
413.00000,1.177094
413.50000, 
414.00000,1.174454
414.50000, 
415.00000,1.173340
415.50000, 
416.00000,1.171478
416.50000, 
417.00000,1.171066
417.50000, 
418.00000,1.171158
418.50000, 
419.00000,1.171677
419.50000, 
420.00000,1.172607
420.50000, 
421.00000,1.174271
421.50000, 
422.00000,1.176178
422.50000, 
423.00000,1.178223
423.50000, 
424.00000,1.180527
424.50000, 
425.00000,1.182999
425.50000, 
426.00000,1.186279
426.50000, 
427.00000,1.189560
427.50000, 
428.00000,1.193237
428.50000, 
429.00000,1.196991
429.50000, 
430.00000,1.200470
430.50000, 
431.00000,1.204727
431.50000, 
432.00000,1.209229
432.50000, 
433.00000,1.213715
433.50000, 
434.00000,1.218353
434.50000, 
435.00000,1.223160
435.50000, 
436.00000,1.227783
436.50000, 
437.00000,1.233185
437.50000, 
438.00000,1.238205
438.50000, 
439.00000,1.243500
439.50000, 
440.00000,1.248764
440.50000, 
441.00000,1.253952
441.50000, 
442.00000,1.259186
442.50000, 
443.00000,1.264664
443.50000, 
444.00000,1.270538
444.50000, 
445.00000,1.276474
445.50000, 
446.00000,1.282547
446.50000, 
447.00000,1.288589
447.50000, 
448.00000,1.294724
448.50000, 
449.00000,1.300766
449.50000, 
450.00000,1.306152
450.50000, 
451.00000,1.312744
451.50000, 
452.00000,1.319153
452.50000, 
453.00000,1.325302
453.50000, 
454.00000,1.332123
454.50000, 
455.00000,1.338715
455.50000, 
456.00000,1.345535
456.50000, 
457.00000,1.352432
457.50000, 
458.00000,1.359344
458.50000, 
459.00000,1.366531
459.50000, 
460.00000,1.372849
460.50000, 
461.00000,1.380066
461.50000, 
462.00000,1.386353
462.50000, 
463.00000,1.393448
463.50000, 
464.00000,1.400345
464.50000, 
465.00000,1.406891
465.50000, 
466.00000,1.413849
466.50000, 
467.00000,1.420410
467.50000, 
468.00000,1.426453
468.50000, 
469.00000,1.432587
469.50000, 
470.00000,1.438477
470.50000, 
471.00000,1.443604
471.50000, 
472.00000,1.446976
472.50000, 
473.00000,1.448685
473.50000, 
474.00000,1.453323
474.50000, 
475.00000,1.462082
475.50000, 
476.00000,1.471512
476.50000, 
477.00000,1.482224
477.50000, 
478.00000,1.493866
478.50000, 
479.00000,1.506531
479.50000, 
480.00000,1.520447
480.50000, 
481.00000,1.535675
481.50000, 
482.00000,1.551208
482.50000, 
483.00000,1.568787
483.50000, 
484.00000,1.589218
484.50000, 
485.00000,1.610336
485.50000, 
486.00000,1.632950
486.50000, 
487.00000,1.656891
487.50000, 
488.00000,1.680603
488.50000, 
489.00000,1.702301
489.50000, 
490.00000,1.723114
490.50000, 
491.00000,1.741394
491.50000, 
492.00000,1.757172
492.50000, 
493.00000,1.769272
493.50000, 
494.00000,1.778152
494.50000, 
495.00000,1.784439
495.50000, 
496.00000,1.788025
496.50000, 
497.00000,1.789825
497.50000, 
498.00000,1.789597
498.50000, 
499.00000,1.788940
499.50000, 
500.00000,1.787582
500.50000, 
501.00000,1.785751
501.50000, 
502.00000,1.784088
502.50000, 
503.00000,1.782227
503.50000, 
504.00000,1.781296
504.50000, 
505.00000,1.779297
505.50000, 
506.00000,1.778214
506.50000, 
507.00000,1.777069
507.50000, 
508.00000,1.776230
508.50000, 
509.00000,1.775681
509.50000, 
510.00000,1.775208
510.50000, 
511.00000,1.774139
511.50000, 
512.00000,1.774414
512.50000, 
513.00000,1.773102
513.50000, 
514.00000,1.773010
514.50000, 
515.00000,1.772552
515.50000, 
516.00000,1.771469
516.50000, 
517.00000,1.770432
517.50000, 
518.00000,1.769196
518.50000, 
519.00000,1.768661
519.50000, 
520.00000,1.766693
520.50000, 
521.00000,1.765060
521.50000, 
522.00000,1.763763
522.50000, 
523.00000,1.761932
523.50000, 
524.00000,1.760162
524.50000, 
525.00000,1.758133
525.50000, 
526.00000,1.755661
526.50000, 
527.00000,1.753693
527.50000, 
528.00000,1.751648
528.50000, 
529.00000,1.749329
529.50000, 
530.00000,1.746887
530.50000, 
531.00000,1.744934
531.50000, 
532.00000,1.743652
532.50000, 
533.00000,1.741806
533.50000, 
534.00000,1.740051
534.50000, 
535.00000,1.738495
535.50000, 
536.00000,1.735062
536.50000, 
537.00000,1.731079
537.50000, 
538.00000,1.730331
538.50000, 
539.00000,1.730087
539.50000, 
540.00000,1.729523
540.50000, 
541.00000,1.729050
541.50000, 
542.00000,1.728653
542.50000, 
543.00000,1.728821
543.50000, 
544.00000,1.728226
544.50000, 
545.00000,1.728500
545.50000, 
546.00000,1.728333
546.50000, 
547.00000,1.727921
547.50000, 
548.00000,1.727737
548.50000, 
549.00000,1.727142
549.50000, 
550.00000,1.726334
550.50000, 
551.00000,1.725357
551.50000, 
552.00000,1.723648
552.50000, 
553.00000,1.721329
553.50000, 
554.00000,1.719086
554.50000, 
555.00000,1.716385
555.50000, 
556.00000,1.712921
556.50000, 
557.00000,1.709000
557.50000, 
558.00000,1.704102
558.50000, 
559.00000,1.698807
559.50000, 
560.00000,1.693481
560.50000, 
561.00000,1.686859
561.50000, 
562.00000,1.679947
562.50000, 
563.00000,1.672638
563.50000, 
564.00000,1.664597
564.50000, 
565.00000,1.655991
565.50000, 
566.00000,1.647171
566.50000, 
567.00000,1.638000
567.50000, 
568.00000,1.628815
568.50000, 
569.00000,1.618912
569.50000, 
570.00000,1.608765
570.50000, 
571.00000,1.598907
571.50000, 
572.00000,1.588821
572.50000, 
573.00000,1.578629
573.50000, 
574.00000,1.568298
574.50000, 
575.00000,1.557510
575.50000, 
576.00000,1.547165
576.50000, 
577.00000,1.537369
577.50000, 
578.00000,1.527557
578.50000, 
579.00000,1.518082
579.50000, 
580.00000,1.509460
580.50000, 
581.00000,1.501434
581.50000, 
582.00000,1.493546
582.50000, 
583.00000,1.486435
583.50000, 
584.00000,1.479919
584.50000, 
585.00000,1.473846
585.50000, 
586.00000,1.468430
586.50000, 
587.00000,1.463699
587.50000, 
588.00000,1.459427
588.50000, 
589.00000,1.455948
589.50000, 
590.00000,1.452866
590.50000, 
591.00000,1.450104
591.50000, 
592.00000,1.447754
592.50000, 
593.00000,1.445511
593.50000, 
594.00000,1.443634
594.50000, 
595.00000,1.441696
595.50000, 
596.00000,1.440170
596.50000, 
597.00000,1.438278
597.50000, 
598.00000,1.436478
598.50000, 
599.00000,1.434250
599.50000, 
600.00000,1.431747
600.50000, 
601.00000,1.428711
601.50000, 
602.00000,1.425095
602.50000, 
603.00000,1.420624
603.50000, 
604.00000,1.415604
604.50000, 
605.00000,1.409698
605.50000, 
606.00000,1.402924
606.50000, 
607.00000,1.395218
607.50000, 
608.00000,1.386688
608.50000, 
609.00000,1.376968
609.50000, 
610.00000,1.366577
610.50000, 
611.00000,1.355225
611.50000, 
612.00000,1.342575
612.50000, 
613.00000,1.329514
613.50000, 
614.00000,1.315750
614.50000, 
615.00000,1.301224
615.50000, 
616.00000,1.285751
616.50000, 
617.00000,1.269928
617.50000, 
618.00000,1.253159
618.50000, 
619.00000,1.235794
619.50000, 
620.00000,1.218185
620.50000, 
621.00000,1.199905
621.50000, 
622.00000,1.181641
622.50000, 
623.00000,1.162674
623.50000, 
624.00000,1.142807
624.50000, 
625.00000,1.123199
625.50000, 
626.00000,1.103867
626.50000, 
627.00000,1.084503
627.50000, 
628.00000,1.065231
628.50000, 
629.00000,1.046432
629.50000, 
630.00000,1.027740
630.50000, 
631.00000,1.008972
631.50000, 
632.00000,0.989288
632.50000, 
633.00000,0.968277
633.50000, 
634.00000,0.944031
634.50000, 
635.00000,0.929123
635.50000, 
636.00000,0.930283
636.50000, 
637.00000,0.936768
637.50000, 
638.00000,0.947662
638.50000, 
639.00000,0.964539
639.50000, 
640.00000,0.986252
640.50000, 
641.00000,1.011597
641.50000, 
642.00000,1.039444
642.50000, 
643.00000,1.066452
643.50000, 
644.00000,1.089874
644.50000, 
645.00000,1.106415
645.50000, 
646.00000,1.114899
646.50000, 
647.00000,1.114426
647.50000, 
648.00000,1.106354
648.50000, 
649.00000,1.092102
649.50000, 
650.00000,1.074554
650.50000, 
651.00000,1.055298
651.50000, 
652.00000,1.035278
652.50000, 
653.00000,1.016113
653.50000, 
654.00000,0.997559
654.50000, 
655.00000,0.980469
655.50000, 
656.00000,0.964706
656.50000, 
657.00000,0.950577
657.50000, 
658.00000,0.937637
658.50000, 
659.00000,0.925751
659.50000, 
660.00000,0.914352
660.50000, 
661.00000,0.904160
661.50000, 
662.00000,0.895050
662.50000, 
663.00000,0.886520
663.50000, 
664.00000,0.878830
664.50000, 
665.00000,0.871643
665.50000, 
666.00000,0.865112
666.50000, 
667.00000,0.859177
667.50000, 
668.00000,0.853394
668.50000, 
669.00000,0.847900
669.50000, 
670.00000,0.842972
670.50000, 
671.00000,0.838181
671.50000, 
672.00000,0.833603
672.50000, 
673.00000,0.829361
673.50000, 
674.00000,0.825439
674.50000, 
675.00000,0.821609
675.50000, 
676.00000,0.818130
676.50000, 
677.00000,0.814743
677.50000, 
678.00000,0.811676
678.50000, 
679.00000,0.808640
679.50000, 
680.00000,0.805954
680.50000, 
681.00000,0.803177
681.50000, 
682.00000,0.800720
682.50000, 
683.00000,0.798187
683.50000, 
684.00000,0.795990
684.50000, 
685.00000,0.793747
685.50000, 
686.00000,0.791702
686.50000, 
687.00000,0.789658
687.50000, 
688.00000,0.787827
688.50000, 
689.00000,0.785965
689.50000, 
690.00000,0.784149
690.50000, 
691.00000,0.782471
691.50000, 
692.00000,0.780853
692.50000, 
693.00000,0.779221
693.50000, 
694.00000,0.777649
694.50000, 
695.00000,0.776169
695.50000, 
696.00000,0.774567
696.50000, 
697.00000,0.773193
697.50000, 
698.00000,0.771683
698.50000, 
699.00000,0.770264
699.50000, 
700.00000,0.768845
700.50000, 
701.00000,0.767670
701.50000, 
702.00000,0.766357
702.50000, 
703.00000,0.765259
703.50000, 
704.00000,0.764008
704.50000, 
705.00000,0.762863
705.50000, 
706.00000,0.761719
706.50000, 
707.00000,0.760666
707.50000, 
708.00000,0.759537
708.50000, 
709.00000,0.758560
709.50000, 
710.00000,0.757568
710.50000, 
711.00000,0.756561
711.50000, 
712.00000,0.755630
712.50000, 
713.00000,0.754639
713.50000, 
714.00000,0.753830
714.50000, 
715.00000,0.752808
715.50000, 
716.00000,0.751984
716.50000, 
717.00000,0.751175
717.50000, 
718.00000,0.750198
718.50000, 
719.00000,0.749298
719.50000, 
720.00000,0.748444
720.50000, 
721.00000,0.747589
721.50000, 
722.00000,0.746643
722.50000, 
723.00000,0.746063
723.50000, 
724.00000,0.745209
724.50000, 
725.00000,0.744522
725.50000, 
726.00000,0.743759
726.50000, 
727.00000,0.742950
727.50000, 
728.00000,0.742355
728.50000, 
729.00000,0.741562
729.50000, 
730.00000,0.740997
730.50000, 
731.00000,0.740265
731.50000, 
732.00000,0.739655
732.50000, 
733.00000,0.739120
733.50000, 
734.00000,0.738388
734.50000, 
735.00000,0.737869
735.50000, 
736.00000,0.737259
736.50000, 
737.00000,0.736786
737.50000, 
738.00000,0.736145
738.50000, 
739.00000,0.735657
739.50000, 
740.00000,0.735260
740.50000, 
741.00000,0.734650
741.50000, 
742.00000,0.734070
742.50000, 
743.00000,0.733475
743.50000, 
744.00000,0.733002
744.50000, 
745.00000,0.732483
745.50000, 
746.00000,0.731781
746.50000, 
747.00000,0.731216
747.50000, 
748.00000,0.730530
748.50000, 
749.00000,0.730026
749.50000, 
750.00000,0.729538
750.50000, 
751.00000,0.729004
751.50000, 
752.00000,0.728745
752.50000, 
753.00000,0.728149
753.50000, 
754.00000,0.727859
754.50000, 
755.00000,0.727371
755.50000, 
756.00000,0.726837
756.50000, 
757.00000,0.726563
757.50000, 
758.00000,0.725983
758.50000, 
759.00000,0.725876
759.50000, 
760.00000,0.725403
760.50000, 
761.00000,0.724960
761.50000, 
762.00000,0.724609
762.50000, 
763.00000,0.724182
763.50000, 
764.00000,0.723862
764.50000, 
765.00000,0.723511
765.50000, 
766.00000,0.723236
766.50000, 
767.00000,0.722824
767.50000, 
768.00000,0.722443
768.50000, 
769.00000,0.722107
769.50000, 
770.00000,0.721985
770.50000, 
771.00000,0.721497
771.50000, 
772.00000,0.721390
772.50000, 
773.00000,0.720901
773.50000, 
774.00000,0.720551
774.50000, 
775.00000,0.720474
775.50000, 
776.00000,0.719879
776.50000, 
777.00000,0.719803
777.50000, 
778.00000,0.719360
778.50000, 
779.00000,0.719040
779.50000, 
780.00000,0.718750
780.50000, 
781.00000,0.718414
781.50000, 
782.00000,0.717880
782.50000, 
783.00000,0.717789
783.50000, 
784.00000,0.717178
784.50000, 
785.00000,0.717087
785.50000, 
786.00000,0.716583
786.50000, 
787.00000,0.716019
787.50000, 
788.00000,0.715515
788.50000, 
789.00000,0.714905
789.50000, 
790.00000,0.714386
790.50000, 
791.00000,0.713989
791.50000, 
792.00000,0.713165
792.50000, 
793.00000,0.712494
793.50000, 
794.00000,0.711777
794.50000, 
795.00000,0.710709
795.50000, 
796.00000,0.710205
796.50000, 
797.00000,0.709061
797.50000, 
798.00000,0.708130
798.50000, 
799.00000,0.707214
799.50000, 
800.00000,0.706131
800.50000, 
801.00000,0.704773
801.50000, 
802.00000,0.703827
802.50000, 
803.00000,0.702057
803.50000, 
804.00000,0.700699
804.50000, 
805.00000,0.699417
805.50000, 
806.00000,0.697662
806.50000, 
807.00000,0.695816
807.50000, 
808.00000,0.694061
808.50000, 
809.00000,0.691711
809.50000, 
810.00000,0.689651
810.50000, 
811.00000,0.687653
811.50000, 
812.00000,0.684967
812.50000, 
813.00000,0.682434
813.50000, 
814.00000,0.679718
814.50000, 
815.00000,0.676727
815.50000, 
816.00000,0.673843
816.50000, 
817.00000,0.670837
817.50000, 
818.00000,0.667313
818.50000, 
819.00000,0.664169
819.50000, 
820.00000,0.660385
820.50000, 
821.00000,0.656815
821.50000, 
822.00000,0.653320
822.50000, 
823.00000,0.649597
823.50000, 
824.00000,0.645065
824.50000, 
825.00000,0.641495
825.50000, 
826.00000,0.637009
826.50000, 
827.00000,0.632782
827.50000, 
828.00000,0.628433
828.50000, 
829.00000,0.623764
829.50000, 
830.00000,0.618835
830.50000, 
831.00000,0.614380
831.50000, 
832.00000,0.609329
832.50000, 
833.00000,0.603943
833.50000, 
834.00000,0.599319
834.50000, 
835.00000,0.593719
835.50000, 
836.00000,0.588043
836.50000, 
837.00000,0.582718
837.50000, 
838.00000,0.577118
838.50000, 
839.00000,0.570892
839.50000, 
840.00000,0.566086
840.50000, 
841.00000,0.560318
841.50000, 
842.00000,0.554367
842.50000, 
843.00000,0.548965
843.50000, 
844.00000,0.543015
844.50000, 
845.00000,0.536758
845.50000, 
846.00000,0.531448
846.50000, 
847.00000,0.526047
847.50000, 
848.00000,0.519592
848.50000, 
849.00000,0.514282
849.50000, 
850.00000,0.508728
850.50000, 
851.00000,0.502747
851.50000, 
852.00000,0.496887
852.50000, 
853.00000,0.491669
853.50000, 
854.00000,0.485382
854.50000, 
855.00000,0.479248
855.50000, 
856.00000,0.474060
856.50000, 
857.00000,0.467667
857.50000, 
858.00000,0.461685
858.50000, 
859.00000,0.456207
859.50000, 
860.00000,0.450470
860.50000, 
861.00000,0.444290
861.50000, 
862.00000,0.439117
862.50000, 
863.00000,0.433517
863.50000, 
864.00000,0.427460
864.50000, 
865.00000,0.422424
865.50000, 
866.00000,0.417282
866.50000, 
867.00000,0.411926
867.50000, 
868.00000,0.406708
868.50000, 
869.00000,0.402161
869.50000, 
870.00000,0.396805
870.50000, 
871.00000,0.391632
871.50000, 
872.00000,0.387375
872.50000, 
873.00000,0.382523
873.50000, 
874.00000,0.377594
874.50000, 
875.00000,0.373154
875.50000, 
876.00000,0.368820
876.50000, 
877.00000,0.363647
877.50000, 
878.00000,0.359100
878.50000, 
879.00000,0.355209
879.50000, 
880.00000,0.350311
880.50000, 
881.00000,0.345581
881.50000, 
882.00000,0.341690
882.50000, 
883.00000,0.337357
883.50000, 
884.00000,0.332809
884.50000, 
885.00000,0.329300
885.50000, 
886.00000,0.325714
886.50000, 
887.00000,0.321381
887.50000, 
888.00000,0.317581
888.50000, 
889.00000,0.314560
889.50000, 
890.00000,0.310867
890.50000, 
891.00000,0.306931
891.50000, 
892.00000,0.304123
892.50000, 
893.00000,0.301208
893.50000, 
894.00000,0.297516
894.50000, 
895.00000,0.294418
895.50000, 
896.00000,0.291885
896.50000, 
897.00000,0.288956
897.50000, 
898.00000,0.285324
898.50000, 
899.00000,0.282883
899.50000, 
900.00000,0.281509
900.50000, 
901.00000, 
901.50000, 
902.00000, 
902.50000, 
903.00000, 
903.50000, 
904.00000, 
904.50000, 
905.00000, 
905.50000, 
906.00000, 
906.50000, 
907.00000, 
907.50000, 
908.00000, 
908.50000, 
909.00000, 
909.50000, 
910.00000, 
910.50000, 
911.00000, 
911.50000, 
912.00000, 
912.50000, 
913.00000, 
913.50000, 
914.00000, 
914.50000, 
915.00000, 
915.50000, 
916.00000, 
916.50000, 
917.00000, 
917.50000, 
918.00000, 
918.50000, 
919.00000, 
919.50000, 
920.00000, 
920.50000, 
921.00000, 
921.50000, 
922.00000, 
922.50000, 
923.00000, 
923.50000, 
924.00000, 
924.50000, 
925.00000, 
925.50000, 
926.00000, 
926.50000, 
927.00000, 
927.50000, 
928.00000, 
928.50000, 
929.00000, 
929.50000, 
930.00000, 
930.50000, 
931.00000, 
931.50000, 
932.00000, 
932.50000, 
933.00000, 
933.50000, 
934.00000, 
934.50000, 
935.00000, 
935.50000, 
936.00000, 
936.50000, 
937.00000, 
937.50000, 
938.00000, 
938.50000, 
939.00000, 
939.50000, 
940.00000, 
940.50000, 
941.00000, 
941.50000, 
942.00000, 
942.50000, 
943.00000, 
943.50000, 
944.00000, 
944.50000, 
945.00000, 
945.50000, 
946.00000, 
946.50000, 
947.00000, 
947.50000, 
948.00000, 
948.50000, 
949.00000, 
949.50000, 
950.00000, 
950.50000, 
951.00000, 
951.50000, 
952.00000, 
952.50000, 
953.00000, 
953.50000, 
954.00000, 
954.50000, 
955.00000, 
955.50000, 
956.00000, 
956.50000, 
957.00000, 
957.50000, 
958.00000, 
958.50000, 
959.00000, 
959.50000, 
960.00000, 
960.50000, 
961.00000, 
961.50000, 
962.00000, 
962.50000, 
963.00000, 
963.50000, 
964.00000, 
964.50000, 
965.00000, 
965.50000, 
966.00000, 
966.50000, 
967.00000, 
967.50000, 
968.00000, 
968.50000, 
969.00000, 
969.50000, 
970.00000, 
970.50000, 
971.00000, 
971.50000, 
972.00000, 
972.50000, 
973.00000, 
973.50000, 
974.00000, 
974.50000, 
975.00000, 
975.50000, 
976.00000, 
976.50000, 
977.00000, 
977.50000, 
978.00000, 
978.50000, 
979.00000, 
979.50000, 
980.00000, 
980.50000, 
981.00000, 
981.50000, 
982.00000, 
982.50000, 
983.00000, 
983.50000, 
984.00000, 
984.50000, 
985.00000, 
985.50000, 
986.00000, 
986.50000, 
987.00000, 
987.50000, 
988.00000, 
988.50000, 
989.00000, 
989.50000, 
990.00000, 
990.50000, 
991.00000, 
991.50000, 
992.00000, 
992.50000, 
993.00000, 
993.50000, 
994.00000, 
994.50000, 
995.00000, 
995.50000, 
996.00000, 
996.50000, 
997.00000, 
997.50000, 
998.00000, 
998.50000, 
999.00000, 
999.50000, 
1000.00000, 
1000.50000, 
1001.00000, 
1001.50000, 
1002.00000, 
1002.50000, 
1003.00000, 
1003.50000, 
1004.00000, 
1004.50000, 
1005.00000, 
1005.50000, 
1006.00000, 
1006.50000, 
1007.00000, 
1007.50000, 
1008.00000, 
1008.50000, 
1009.00000, 
1009.50000, 
1010.00000, 
1010.50000, 
1011.00000, 
1011.50000, 
1012.00000, 
1012.50000, 
1013.00000, 
1013.50000, 
1014.00000, 
1014.50000, 
1015.00000, 
1015.50000, 
1016.00000, 
1016.50000, 
1017.00000, 
1017.50000, 
1018.00000, 
1018.50000, 
1019.00000, 
1019.50000, 
1020.00000, 
1020.50000, 
1021.00000, 
1021.50000, 
1022.00000, 
1022.50000, 
1023.00000, 
1023.50000, 
1024.00000, 
1024.50000, 
1025.00000, 
1025.50000, 
1026.00000, 
1026.50000, 
1027.00000, 
1027.50000, 
1028.00000, 
1028.50000, 
1029.00000, 
1029.50000, 
1030.00000, 
1030.50000, 
1031.00000, 
1031.50000, 
1032.00000, 
1032.50000, 
1033.00000, 
1033.50000, 
1034.00000, 
1034.50000, 
1035.00000, 
1035.50000, 
1036.00000, 
1036.50000, 
1037.00000, 
1037.50000, 
1038.00000, 
1038.50000, 
1039.00000, 
1039.50000, 
1040.00000, 
1040.50000, 
1041.00000, 
1041.50000, 
1042.00000, 
1042.50000, 
1043.00000, 
1043.50000, 
1044.00000, 
1044.50000, 
1045.00000, 
1045.50000, 
1046.00000, 
1046.50000, 
1047.00000, 
1047.50000, 
1048.00000, 
1048.50000, 
1049.00000, 
1049.50000, 
1050.00000, 
1050.50000, 
1051.00000, 
1051.50000, 
1052.00000, 
1052.50000, 
1053.00000, 
1053.50000, 
1054.00000, 
1054.50000, 
1055.00000, 
1055.50000, 
1056.00000, 
1056.50000, 
1057.00000, 
1057.50000, 
1058.00000, 
1058.50000, 
1059.00000, 
1059.50000, 
1060.00000, 
1060.50000, 
1061.00000, 
1061.50000, 
1062.00000, 
1062.50000, 
1063.00000, 
1063.50000, 
1064.00000, 
1064.50000, 
1065.00000, 
1065.50000, 
1066.00000, 
1066.50000, 
1067.00000, 
1067.50000, 
1068.00000, 
1068.50000, 
1069.00000, 
1069.50000, 
1070.00000, 
1070.50000, 
1071.00000, 
1071.50000, 
1072.00000, 
1072.50000, 
1073.00000, 
1073.50000, 
1074.00000, 
1074.50000, 
1075.00000, 
1075.50000, 
1076.00000, 
1076.50000, 
1077.00000, 
1077.50000, 
1078.00000, 
1078.50000, 
1079.00000, 
1079.50000, 
1080.00000, 
1080.50000, 
1081.00000, 
1081.50000, 
1082.00000, 
1082.50000, 
1083.00000, 
1083.50000, 
1084.00000, 
1084.50000, 
1085.00000, 
1085.50000, 
1086.00000, 
1086.50000, 
1087.00000, 
1087.50000, 
1088.00000, 
1088.50000, 
1089.00000, 
1089.50000, 
1090.00000, 
1090.50000, 
1091.00000, 
1091.50000, 
1092.00000, 
1092.50000, 
1093.00000, 
1093.50000, 
1094.00000, 
1094.50000, 
1095.00000, 
1095.50000, 
1096.00000, 
1096.50000, 
1097.00000, 
1097.50000, 
1098.00000, 
1098.50000, 
1099.00000, 
1099.50000, 
1100.00000, 
