"10% - RawData"
"Wavelength nm.","Abs."
300.00000,0.356750
300.50000, 
301.00000,0.353790
301.50000, 
302.00000,0.350540
302.50000, 
303.00000,0.347229
303.50000, 
304.00000,0.344254
304.50000, 
305.00000,0.341385
305.50000, 
306.00000,0.339554
306.50000, 
307.00000,0.337128
307.50000, 
308.00000,0.334900
308.50000, 
309.00000,0.332932
309.50000, 
310.00000,0.331177
310.50000, 
311.00000,0.329559
311.50000, 
312.00000,0.328003
312.50000, 
313.00000,0.326706
313.50000, 
314.00000,0.325302
314.50000, 
315.00000,0.324066
315.50000, 
316.00000,0.323029
316.50000, 
317.00000,0.321838
317.50000, 
318.00000,0.321365
318.50000, 
319.00000,0.320572
319.50000, 
320.00000,0.320007
320.50000, 
321.00000,0.319687
321.50000, 
322.00000,0.319382
322.50000, 
323.00000,0.319016
323.50000, 
324.00000,0.318878
324.50000, 
325.00000,0.318954
325.50000, 
326.00000,0.319199
326.50000, 
327.00000,0.319427
327.50000, 
328.00000,0.319977
328.50000, 
329.00000,0.320068
329.50000, 
330.00000,0.320511
330.50000, 
331.00000,0.321259
331.50000, 
332.00000,0.322006
332.50000, 
333.00000,0.322754
333.50000, 
334.00000,0.323517
334.50000, 
335.00000,0.324127
335.50000, 
336.00000,0.325272
336.50000, 
337.00000,0.326523
337.50000, 
338.00000,0.327316
338.50000, 
339.00000,0.328415
339.50000, 
340.00000,0.328644
340.50000, 
341.00000,0.328857
341.50000, 
342.00000,0.330093
342.50000, 
343.00000,0.331146
343.50000, 
344.00000,0.332214
344.50000, 
345.00000,0.333862
345.50000, 
346.00000,0.335190
346.50000, 
347.00000,0.335968
347.50000, 
348.00000,0.338226
348.50000, 
349.00000,0.339127
349.50000, 
350.00000,0.340942
350.50000, 
351.00000,0.342545
351.50000, 
352.00000,0.344070
352.50000, 
353.00000,0.346161
353.50000, 
354.00000,0.347519
354.50000, 
355.00000,0.349396
355.50000, 
356.00000,0.351089
356.50000, 
357.00000,0.352936
357.50000, 
358.00000,0.355103
358.50000, 
359.00000,0.357468
359.50000, 
360.00000,0.359207
360.50000, 
361.00000,0.361313
361.50000, 
362.00000,0.363419
362.50000, 
363.00000,0.364975
363.50000, 
364.00000,0.367661
364.50000, 
365.00000,0.368973
365.50000, 
366.00000,0.370895
366.50000, 
367.00000,0.373138
367.50000, 
368.00000,0.375427
368.50000, 
369.00000,0.378113
369.50000, 
370.00000,0.380447
370.50000, 
371.00000,0.382751
371.50000, 
372.00000,0.385315
372.50000, 
373.00000,0.387314
373.50000, 
374.00000,0.389999
374.50000, 
375.00000,0.392929
375.50000, 
376.00000,0.395432
376.50000, 
377.00000,0.397919
377.50000, 
378.00000,0.400787
378.50000, 
379.00000,0.403595
379.50000, 
380.00000,0.406570
380.50000, 
381.00000,0.409424
381.50000, 
382.00000,0.412537
382.50000, 
383.00000,0.415359
383.50000, 
384.00000,0.418411
384.50000, 
385.00000,0.421509
385.50000, 
386.00000,0.424591
386.50000, 
387.00000,0.427963
387.50000, 
388.00000,0.431290
388.50000, 
389.00000,0.434540
389.50000, 
390.00000,0.438049
390.50000, 
391.00000,0.441483
391.50000, 
392.00000,0.445068
392.50000, 
393.00000,0.448822
393.50000, 
394.00000,0.452484
394.50000, 
395.00000,0.456268
395.50000, 
396.00000,0.460480
396.50000, 
397.00000,0.464539
397.50000, 
398.00000,0.468704
398.50000, 
399.00000,0.472855
399.50000, 
400.00000,0.477295
400.50000, 
401.00000,0.481537
401.50000, 
402.00000,0.485565
402.50000, 
403.00000,0.489548
403.50000, 
404.00000,0.493652
404.50000, 
405.00000,0.497986
405.50000, 
406.00000,0.502274
406.50000, 
407.00000,0.506836
407.50000, 
408.00000,0.511124
408.50000, 
409.00000,0.515564
409.50000, 
410.00000,0.520126
410.50000, 
411.00000,0.524597
411.50000, 
412.00000,0.528717
412.50000, 
413.00000,0.533173
413.50000, 
414.00000,0.537994
414.50000, 
415.00000,0.542572
415.50000, 
416.00000,0.546478
416.50000, 
417.00000,0.550995
417.50000, 
418.00000,0.555954
418.50000, 
419.00000,0.560471
419.50000, 
420.00000,0.565063
420.50000, 
421.00000,0.570099
421.50000, 
422.00000,0.574951
422.50000, 
423.00000,0.579636
423.50000, 
424.00000,0.584747
424.50000, 
425.00000,0.590164
425.50000, 
426.00000,0.595367
426.50000, 
427.00000,0.600830
427.50000, 
428.00000,0.606232
428.50000, 
429.00000,0.611618
429.50000, 
430.00000,0.617432
430.50000, 
431.00000,0.623474
431.50000, 
432.00000,0.629303
432.50000, 
433.00000,0.635071
433.50000, 
434.00000,0.641159
434.50000, 
435.00000,0.647324
435.50000, 
436.00000,0.653091
436.50000, 
437.00000,0.659409
437.50000, 
438.00000,0.665939
438.50000, 
439.00000,0.672028
439.50000, 
440.00000,0.678146
440.50000, 
441.00000,0.684448
441.50000, 
442.00000,0.690628
442.50000, 
443.00000,0.696777
443.50000, 
444.00000,0.703598
444.50000, 
445.00000,0.710205
445.50000, 
446.00000,0.716522
446.50000, 
447.00000,0.723221
447.50000, 
448.00000,0.730026
448.50000, 
449.00000,0.736725
449.50000, 
450.00000,0.742966
450.50000, 
451.00000,0.749527
451.50000, 
452.00000,0.756454
452.50000, 
453.00000,0.763428
453.50000, 
454.00000,0.770615
454.50000, 
455.00000,0.777649
455.50000, 
456.00000,0.784836
456.50000, 
457.00000,0.792267
457.50000, 
458.00000,0.799484
458.50000, 
459.00000,0.806564
459.50000, 
460.00000,0.813873
460.50000, 
461.00000,0.821228
461.50000, 
462.00000,0.828079
462.50000, 
463.00000,0.835281
463.50000, 
464.00000,0.842789
464.50000, 
465.00000,0.849792
465.50000, 
466.00000,0.856995
466.50000, 
467.00000,0.863998
467.50000, 
468.00000,0.871231
468.50000, 
469.00000,0.877991
469.50000, 
470.00000,0.885162
470.50000, 
471.00000,0.891968
471.50000, 
472.00000,0.898788
472.50000, 
473.00000,0.904800
473.50000, 
474.00000,0.911697
474.50000, 
475.00000,0.918488
475.50000, 
476.00000,0.925613
476.50000, 
477.00000,0.932785
477.50000, 
478.00000,0.940186
478.50000, 
479.00000,0.947327
479.50000, 
480.00000,0.954453
480.50000, 
481.00000,0.961731
481.50000, 
482.00000,0.968521
482.50000, 
483.00000,0.975647
483.50000, 
484.00000,0.983063
484.50000, 
485.00000,0.990219
485.50000, 
486.00000,0.997238
486.50000, 
487.00000,1.004303
487.50000, 
488.00000,1.011185
488.50000, 
489.00000,1.017532
489.50000, 
490.00000,1.023911
490.50000, 
491.00000,1.029739
491.50000, 
492.00000,1.035446
492.50000, 
493.00000,1.040894
493.50000, 
494.00000,1.046173
494.50000, 
495.00000,1.051117
495.50000, 
496.00000,1.055679
496.50000, 
497.00000,1.059982
497.50000, 
498.00000,1.064346
498.50000, 
499.00000,1.068420
499.50000, 
500.00000,1.072388
500.50000, 
501.00000,1.076355
501.50000, 
502.00000,1.080399
502.50000, 
503.00000,1.084244
503.50000, 
504.00000,1.088043
504.50000, 
505.00000,1.091721
505.50000, 
506.00000,1.095322
506.50000, 
507.00000,1.098663
507.50000, 
508.00000,1.101944
508.50000, 
509.00000,1.104965
509.50000, 
510.00000,1.107971
510.50000, 
511.00000,1.110428
511.50000, 
512.00000,1.112823
512.50000, 
513.00000,1.114914
513.50000, 
514.00000,1.116608
514.50000, 
515.00000,1.117920
515.50000, 
516.00000,1.119171
516.50000, 
517.00000,1.119995
517.50000, 
518.00000,1.120667
518.50000, 
519.00000,1.121140
519.50000, 
520.00000,1.120911
520.50000, 
521.00000,1.120895
521.50000, 
522.00000,1.120529
522.50000, 
523.00000,1.119843
523.50000, 
524.00000,1.118912
524.50000, 
525.00000,1.117859
525.50000, 
526.00000,1.116531
526.50000, 
527.00000,1.115082
527.50000, 
528.00000,1.113632
528.50000, 
529.00000,1.112228
529.50000, 
530.00000,1.110550
530.50000, 
531.00000,1.109100
531.50000, 
532.00000,1.107452
532.50000, 
533.00000,1.105881
533.50000, 
534.00000,1.104584
534.50000, 
535.00000,1.103210
535.50000, 
536.00000,1.102173
536.50000, 
537.00000,1.101120
537.50000, 
538.00000,1.100174
538.50000, 
539.00000,1.099365
539.50000, 
540.00000,1.098679
540.50000, 
541.00000,1.097946
541.50000, 
542.00000,1.097382
542.50000, 
543.00000,1.096878
543.50000, 
544.00000,1.096542
544.50000, 
545.00000,1.095978
545.50000, 
546.00000,1.095352
546.50000, 
547.00000,1.094681
547.50000, 
548.00000,1.093918
548.50000, 
549.00000,1.092758
549.50000, 
550.00000,1.091553
550.50000, 
551.00000,1.090103
551.50000, 
552.00000,1.088181
552.50000, 
553.00000,1.085892
553.50000, 
554.00000,1.083115
554.50000, 
555.00000,1.079773
555.50000, 
556.00000,1.076172
556.50000, 
557.00000,1.071747
557.50000, 
558.00000,1.066879
558.50000, 
559.00000,1.061371
559.50000, 
560.00000,1.055664
560.50000, 
561.00000,1.049149
561.50000, 
562.00000,1.042252
562.50000, 
563.00000,1.035049
563.50000, 
564.00000,1.027008
564.50000, 
565.00000,1.018585
565.50000, 
566.00000,1.010025
566.50000, 
567.00000,1.001266
567.50000, 
568.00000,0.992065
568.50000, 
569.00000,0.982498
569.50000, 
570.00000,0.972778
570.50000, 
571.00000,0.962784
571.50000, 
572.00000,0.952927
572.50000, 
573.00000,0.943085
573.50000, 
574.00000,0.933136
574.50000, 
575.00000,0.922760
575.50000, 
576.00000,0.912552
576.50000, 
577.00000,0.902649
577.50000, 
578.00000,0.893021
578.50000, 
579.00000,0.883713
579.50000, 
580.00000,0.875107
580.50000, 
581.00000,0.866882
581.50000, 
582.00000,0.859009
582.50000, 
583.00000,0.851776
583.50000, 
584.00000,0.844833
584.50000, 
585.00000,0.838486
585.50000, 
586.00000,0.832748
586.50000, 
587.00000,0.827682
587.50000, 
588.00000,0.823059
588.50000, 
589.00000,0.819046
589.50000, 
590.00000,0.815369
590.50000, 
591.00000,0.812073
591.50000, 
592.00000,0.809128
592.50000, 
593.00000,0.806259
593.50000, 
594.00000,0.803680
594.50000, 
595.00000,0.801315
595.50000, 
596.00000,0.799072
596.50000, 
597.00000,0.796661
597.50000, 
598.00000,0.794113
598.50000, 
599.00000,0.791351
599.50000, 
600.00000,0.788223
600.50000, 
601.00000,0.784698
601.50000, 
602.00000,0.780548
602.50000, 
603.00000,0.775772
603.50000, 
604.00000,0.770294
604.50000, 
605.00000,0.764267
605.50000, 
606.00000,0.757416
606.50000, 
607.00000,0.749588
607.50000, 
608.00000,0.741211
608.50000, 
609.00000,0.731812
609.50000, 
610.00000,0.721649
610.50000, 
611.00000,0.710876
611.50000, 
612.00000,0.699158
612.50000, 
613.00000,0.686890
613.50000, 
614.00000,0.673935
614.50000, 
615.00000,0.660019
615.50000, 
616.00000,0.645432
616.50000, 
617.00000,0.630615
617.50000, 
618.00000,0.614975
618.50000, 
619.00000,0.599045
619.50000, 
620.00000,0.582825
620.50000, 
621.00000,0.566193
621.50000, 
622.00000,0.549210
622.50000, 
623.00000,0.531738
623.50000, 
624.00000,0.513702
624.50000, 
625.00000,0.495789
625.50000, 
626.00000,0.478363
626.50000, 
627.00000,0.461121
627.50000, 
628.00000,0.444183
628.50000, 
629.00000,0.427490
629.50000, 
630.00000,0.411377
630.50000, 
631.00000,0.395798
631.50000, 
632.00000,0.380234
632.50000, 
633.00000,0.365524
633.50000, 
634.00000,0.351547
634.50000, 
635.00000,0.337814
635.50000, 
636.00000,0.325821
636.50000, 
637.00000,0.314346
637.50000, 
638.00000,0.303696
638.50000, 
639.00000,0.293411
639.50000, 
640.00000,0.284180
640.50000, 
641.00000,0.275406
641.50000, 
642.00000,0.267136
642.50000, 
643.00000,0.259537
643.50000, 
644.00000,0.252289
644.50000, 
645.00000,0.245377
645.50000, 
646.00000,0.238800
646.50000, 
647.00000,0.232559
647.50000, 
648.00000,0.226822
648.50000, 
649.00000,0.221252
649.50000, 
650.00000,0.216141
650.50000, 
651.00000,0.211472
651.50000, 
652.00000,0.207077
652.50000, 
653.00000,0.202957
653.50000, 
654.00000,0.199127
654.50000, 
655.00000,0.195648
655.50000, 
656.00000,0.192444
656.50000, 
657.00000,0.189636
657.50000, 
658.00000,0.186920
658.50000, 
659.00000,0.184448
659.50000, 
660.00000,0.182098
660.50000, 
661.00000,0.179871
661.50000, 
662.00000,0.177917
662.50000, 
663.00000,0.176025
663.50000, 
664.00000,0.174332
664.50000, 
665.00000,0.172699
665.50000, 
666.00000,0.171234
666.50000, 
667.00000,0.169861
667.50000, 
668.00000,0.168503
668.50000, 
669.00000,0.167252
669.50000, 
670.00000,0.166077
670.50000, 
671.00000,0.164917
671.50000, 
672.00000,0.163849
672.50000, 
673.00000,0.162842
673.50000, 
674.00000,0.161880
674.50000, 
675.00000,0.161011
675.50000, 
676.00000,0.160141
676.50000, 
677.00000,0.159302
677.50000, 
678.00000,0.158585
678.50000, 
679.00000,0.157852
679.50000, 
680.00000,0.157166
680.50000, 
681.00000,0.156540
681.50000, 
682.00000,0.155899
682.50000, 
683.00000,0.155258
683.50000, 
684.00000,0.154724
684.50000, 
685.00000,0.154190
685.50000, 
686.00000,0.153641
686.50000, 
687.00000,0.153168
687.50000, 
688.00000,0.152740
688.50000, 
689.00000,0.152298
689.50000, 
690.00000,0.151810
690.50000, 
691.00000,0.151367
691.50000, 
692.00000,0.150970
692.50000, 
693.00000,0.150528
693.50000, 
694.00000,0.150101
694.50000, 
695.00000,0.149734
695.50000, 
696.00000,0.149384
696.50000, 
697.00000,0.148972
697.50000, 
698.00000,0.148590
698.50000, 
699.00000,0.148224
699.50000, 
700.00000,0.147903
700.50000, 
701.00000,0.147552
701.50000, 
702.00000,0.147247
702.50000, 
703.00000,0.146942
703.50000, 
704.00000,0.146637
704.50000, 
705.00000,0.146317
705.50000, 
706.00000,0.146057
706.50000, 
707.00000,0.145737
707.50000, 
708.00000,0.145401
708.50000, 
709.00000,0.145157
709.50000, 
710.00000,0.144943
710.50000, 
711.00000,0.144684
711.50000, 
712.00000,0.144348
712.50000, 
713.00000,0.144135
713.50000, 
714.00000,0.143890
714.50000, 
715.00000,0.143631
715.50000, 
716.00000,0.143402
716.50000, 
717.00000,0.143188
717.50000, 
718.00000,0.142899
718.50000, 
719.00000,0.142670
719.50000, 
720.00000,0.142395
720.50000, 
721.00000,0.142197
721.50000, 
722.00000,0.141953
722.50000, 
723.00000,0.141693
723.50000, 
724.00000,0.141495
724.50000, 
725.00000,0.141281
725.50000, 
726.00000,0.141083
726.50000, 
727.00000,0.140793
727.50000, 
728.00000,0.140671
728.50000, 
729.00000,0.140488
729.50000, 
730.00000,0.140274
730.50000, 
731.00000,0.140060
731.50000, 
732.00000,0.139954
732.50000, 
733.00000,0.139832
733.50000, 
734.00000,0.139633
734.50000, 
735.00000,0.139450
735.50000, 
736.00000,0.139282
736.50000, 
737.00000,0.139175
737.50000, 
738.00000,0.138977
738.50000, 
739.00000,0.138901
739.50000, 
740.00000,0.138794
740.50000, 
741.00000,0.138565
741.50000, 
742.00000,0.138336
742.50000, 
743.00000,0.138199
743.50000, 
744.00000,0.138138
744.50000, 
745.00000,0.137924
745.50000, 
746.00000,0.137573
746.50000, 
747.00000,0.137222
747.50000, 
748.00000,0.136993
748.50000, 
749.00000,0.136765
749.50000, 
750.00000,0.136566
750.50000, 
751.00000,0.136368
751.50000, 
752.00000,0.136200
752.50000, 
753.00000,0.135986
753.50000, 
754.00000,0.135818
754.50000, 
755.00000,0.135620
755.50000, 
756.00000,0.135544
756.50000, 
757.00000,0.135361
757.50000, 
758.00000,0.135178
758.50000, 
759.00000,0.135040
759.50000, 
760.00000,0.134918
760.50000, 
761.00000,0.134750
761.50000, 
762.00000,0.134598
762.50000, 
763.00000,0.134399
763.50000, 
764.00000,0.134201
764.50000, 
765.00000,0.134094
765.50000, 
766.00000,0.133987
766.50000, 
767.00000,0.133774
767.50000, 
768.00000,0.133575
768.50000, 
769.00000,0.133469
769.50000, 
770.00000,0.133331
770.50000, 
771.00000,0.133179
771.50000, 
772.00000,0.133057
772.50000, 
773.00000,0.132843
773.50000, 
774.00000,0.132736
774.50000, 
775.00000,0.132629
775.50000, 
776.00000,0.132462
776.50000, 
777.00000,0.132324
777.50000, 
778.00000,0.132187
778.50000, 
779.00000,0.132019
779.50000, 
780.00000,0.131882
780.50000, 
781.00000,0.131760
781.50000, 
782.00000,0.131622
782.50000, 
783.00000,0.131470
783.50000, 
784.00000,0.131378
784.50000, 
785.00000,0.131241
785.50000, 
786.00000,0.131088
786.50000, 
787.00000,0.130936
787.50000, 
788.00000,0.130814
788.50000, 
789.00000,0.130630
789.50000, 
790.00000,0.130569
790.50000, 
791.00000,0.130447
791.50000, 
792.00000,0.130341
792.50000, 
793.00000,0.130203
793.50000, 
794.00000,0.130051
794.50000, 
795.00000,0.129944
795.50000, 
796.00000,0.129822
796.50000, 
797.00000,0.129684
797.50000, 
798.00000,0.129517
798.50000, 
799.00000,0.129395
799.50000, 
800.00000,0.129318
800.50000, 
801.00000,0.129257
801.50000, 
802.00000,0.129135
802.50000, 
803.00000,0.128967
803.50000, 
804.00000,0.128860
804.50000, 
805.00000,0.128860
805.50000, 
806.00000,0.128738
806.50000, 
807.00000,0.128540
807.50000, 
808.00000,0.128403
808.50000, 
809.00000,0.128342
809.50000, 
810.00000,0.128204
810.50000, 
811.00000,0.128265
811.50000, 
812.00000,0.128098
812.50000, 
813.00000,0.127914
813.50000, 
814.00000,0.127747
814.50000, 
815.00000,0.127625
815.50000, 
816.00000,0.127487
816.50000, 
817.00000,0.127457
817.50000, 
818.00000,0.127289
818.50000, 
819.00000,0.127136
819.50000, 
820.00000,0.126953
820.50000, 
821.00000,0.126953
821.50000, 
822.00000,0.126846
822.50000, 
823.00000,0.126877
823.50000, 
824.00000,0.126617
824.50000, 
825.00000,0.126602
825.50000, 
826.00000,0.126495
826.50000, 
827.00000,0.126358
827.50000, 
828.00000,0.126312
828.50000, 
829.00000,0.126160
829.50000, 
830.00000,0.126053
830.50000, 
831.00000,0.126007
831.50000, 
832.00000,0.125961
832.50000, 
833.00000,0.125748
833.50000, 
834.00000,0.125778
834.50000, 
835.00000,0.125641
835.50000, 
836.00000,0.125549
836.50000, 
837.00000,0.125549
837.50000, 
838.00000,0.125381
838.50000, 
839.00000,0.125290
839.50000, 
840.00000,0.125244
840.50000, 
841.00000,0.125198
841.50000, 
842.00000,0.125092
842.50000, 
843.00000,0.125046
843.50000, 
844.00000,0.125000
844.50000, 
845.00000,0.124908
845.50000, 
846.00000,0.124893
846.50000, 
847.00000,0.124756
847.50000, 
848.00000,0.124710
848.50000, 
849.00000,0.124664
849.50000, 
850.00000,0.124557
850.50000, 
851.00000,0.124512
851.50000, 
852.00000,0.124466
852.50000, 
853.00000,0.124405
853.50000, 
854.00000,0.124268
854.50000, 
855.00000,0.124207
855.50000, 
856.00000,0.124207
856.50000, 
857.00000,0.124115
857.50000, 
858.00000,0.123993
858.50000, 
859.00000,0.123840
859.50000, 
860.00000,0.123749
860.50000, 
861.00000,0.123749
861.50000, 
862.00000,0.123611
862.50000, 
863.00000,0.123566
863.50000, 
864.00000,0.123505
864.50000, 
865.00000,0.123459
865.50000, 
866.00000,0.123367
866.50000, 
867.00000,0.123367
867.50000, 
868.00000,0.123260
868.50000, 
869.00000,0.123230
869.50000, 
870.00000,0.123154
870.50000, 
871.00000,0.123154
871.50000, 
872.00000,0.123108
872.50000, 
873.00000,0.123138
873.50000, 
874.00000,0.123062
874.50000, 
875.00000,0.123047
875.50000, 
876.00000,0.123062
876.50000, 
877.00000,0.123062
877.50000, 
878.00000,0.123062
878.50000, 
879.00000,0.123047
879.50000, 
880.00000,0.123016
880.50000, 
881.00000,0.122849
881.50000, 
882.00000,0.122726
882.50000, 
883.00000,0.122681
883.50000, 
884.00000,0.122650
884.50000, 
885.00000,0.122650
885.50000, 
886.00000,0.122528
886.50000, 
887.00000,0.122513
887.50000, 
888.00000,0.122513
888.50000, 
889.00000,0.122482
889.50000, 
890.00000,0.122437
890.50000, 
891.00000,0.122498
891.50000, 
892.00000,0.122543
892.50000, 
893.00000,0.122681
893.50000, 
894.00000,0.122787
894.50000, 
895.00000,0.122864
895.50000, 
896.00000,0.123001
896.50000, 
897.00000,0.123123
897.50000, 
898.00000,0.123306
898.50000, 
899.00000,0.123459
899.50000, 
900.00000,0.123627
900.50000, 
901.00000, 
901.50000, 
902.00000, 
902.50000, 
903.00000, 
903.50000, 
904.00000, 
904.50000, 
905.00000, 
905.50000, 
906.00000, 
906.50000, 
907.00000, 
907.50000, 
908.00000, 
908.50000, 
909.00000, 
909.50000, 
910.00000, 
910.50000, 
911.00000, 
911.50000, 
912.00000, 
912.50000, 
913.00000, 
913.50000, 
914.00000, 
914.50000, 
915.00000, 
915.50000, 
916.00000, 
916.50000, 
917.00000, 
917.50000, 
918.00000, 
918.50000, 
919.00000, 
919.50000, 
920.00000, 
920.50000, 
921.00000, 
921.50000, 
922.00000, 
922.50000, 
923.00000, 
923.50000, 
924.00000, 
924.50000, 
925.00000, 
925.50000, 
926.00000, 
926.50000, 
927.00000, 
927.50000, 
928.00000, 
928.50000, 
929.00000, 
929.50000, 
930.00000, 
930.50000, 
931.00000, 
931.50000, 
932.00000, 
932.50000, 
933.00000, 
933.50000, 
934.00000, 
934.50000, 
935.00000, 
935.50000, 
936.00000, 
936.50000, 
937.00000, 
937.50000, 
938.00000, 
938.50000, 
939.00000, 
939.50000, 
940.00000, 
940.50000, 
941.00000, 
941.50000, 
942.00000, 
942.50000, 
943.00000, 
943.50000, 
944.00000, 
944.50000, 
945.00000, 
945.50000, 
946.00000, 
946.50000, 
947.00000, 
947.50000, 
948.00000, 
948.50000, 
949.00000, 
949.50000, 
950.00000, 
950.50000, 
951.00000, 
951.50000, 
952.00000, 
952.50000, 
953.00000, 
953.50000, 
954.00000, 
954.50000, 
955.00000, 
955.50000, 
956.00000, 
956.50000, 
957.00000, 
957.50000, 
958.00000, 
958.50000, 
959.00000, 
959.50000, 
960.00000, 
960.50000, 
961.00000, 
961.50000, 
962.00000, 
962.50000, 
963.00000, 
963.50000, 
964.00000, 
964.50000, 
965.00000, 
965.50000, 
966.00000, 
966.50000, 
967.00000, 
967.50000, 
968.00000, 
968.50000, 
969.00000, 
969.50000, 
970.00000, 
970.50000, 
971.00000, 
971.50000, 
972.00000, 
972.50000, 
973.00000, 
973.50000, 
974.00000, 
974.50000, 
975.00000, 
975.50000, 
976.00000, 
976.50000, 
977.00000, 
977.50000, 
978.00000, 
978.50000, 
979.00000, 
979.50000, 
980.00000, 
980.50000, 
981.00000, 
981.50000, 
982.00000, 
982.50000, 
983.00000, 
983.50000, 
984.00000, 
984.50000, 
985.00000, 
985.50000, 
986.00000, 
986.50000, 
987.00000, 
987.50000, 
988.00000, 
988.50000, 
989.00000, 
989.50000, 
990.00000, 
990.50000, 
991.00000, 
991.50000, 
992.00000, 
992.50000, 
993.00000, 
993.50000, 
994.00000, 
994.50000, 
995.00000, 
995.50000, 
996.00000, 
996.50000, 
997.00000, 
997.50000, 
998.00000, 
998.50000, 
999.00000, 
999.50000, 
1000.00000, 
1000.50000, 
1001.00000, 
1001.50000, 
1002.00000, 
1002.50000, 
1003.00000, 
1003.50000, 
1004.00000, 
1004.50000, 
1005.00000, 
1005.50000, 
1006.00000, 
1006.50000, 
1007.00000, 
1007.50000, 
1008.00000, 
1008.50000, 
1009.00000, 
1009.50000, 
1010.00000, 
1010.50000, 
1011.00000, 
1011.50000, 
1012.00000, 
1012.50000, 
1013.00000, 
1013.50000, 
1014.00000, 
1014.50000, 
1015.00000, 
1015.50000, 
1016.00000, 
1016.50000, 
1017.00000, 
1017.50000, 
1018.00000, 
1018.50000, 
1019.00000, 
1019.50000, 
1020.00000, 
1020.50000, 
1021.00000, 
1021.50000, 
1022.00000, 
1022.50000, 
1023.00000, 
1023.50000, 
1024.00000, 
1024.50000, 
1025.00000, 
1025.50000, 
1026.00000, 
1026.50000, 
1027.00000, 
1027.50000, 
1028.00000, 
1028.50000, 
1029.00000, 
1029.50000, 
1030.00000, 
1030.50000, 
1031.00000, 
1031.50000, 
1032.00000, 
1032.50000, 
1033.00000, 
1033.50000, 
1034.00000, 
1034.50000, 
1035.00000, 
1035.50000, 
1036.00000, 
1036.50000, 
1037.00000, 
1037.50000, 
1038.00000, 
1038.50000, 
1039.00000, 
1039.50000, 
1040.00000, 
1040.50000, 
1041.00000, 
1041.50000, 
1042.00000, 
1042.50000, 
1043.00000, 
1043.50000, 
1044.00000, 
1044.50000, 
1045.00000, 
1045.50000, 
1046.00000, 
1046.50000, 
1047.00000, 
1047.50000, 
1048.00000, 
1048.50000, 
1049.00000, 
1049.50000, 
1050.00000, 
1050.50000, 
1051.00000, 
1051.50000, 
1052.00000, 
1052.50000, 
1053.00000, 
1053.50000, 
1054.00000, 
1054.50000, 
1055.00000, 
1055.50000, 
1056.00000, 
1056.50000, 
1057.00000, 
1057.50000, 
1058.00000, 
1058.50000, 
1059.00000, 
1059.50000, 
1060.00000, 
1060.50000, 
1061.00000, 
1061.50000, 
1062.00000, 
1062.50000, 
1063.00000, 
1063.50000, 
1064.00000, 
1064.50000, 
1065.00000, 
1065.50000, 
1066.00000, 
1066.50000, 
1067.00000, 
1067.50000, 
1068.00000, 
1068.50000, 
1069.00000, 
1069.50000, 
1070.00000, 
1070.50000, 
1071.00000, 
1071.50000, 
1072.00000, 
1072.50000, 
1073.00000, 
1073.50000, 
1074.00000, 
1074.50000, 
1075.00000, 
1075.50000, 
1076.00000, 
1076.50000, 
1077.00000, 
1077.50000, 
1078.00000, 
1078.50000, 
1079.00000, 
1079.50000, 
1080.00000, 
1080.50000, 
1081.00000, 
1081.50000, 
1082.00000, 
1082.50000, 
1083.00000, 
1083.50000, 
1084.00000, 
1084.50000, 
1085.00000, 
1085.50000, 
1086.00000, 
1086.50000, 
1087.00000, 
1087.50000, 
1088.00000, 
1088.50000, 
1089.00000, 
1089.50000, 
1090.00000, 
1090.50000, 
1091.00000, 
1091.50000, 
1092.00000, 
1092.50000, 
1093.00000, 
1093.50000, 
1094.00000, 
1094.50000, 
1095.00000, 
1095.50000, 
1096.00000, 
1096.50000, 
1097.00000, 
1097.50000, 
1098.00000, 
1098.50000, 
1099.00000, 
1099.50000, 
1100.00000, 
