"10%H - RawData"
"Wavelength nm.","Abs."
300.00000,4.000000
300.50000, 
301.00000,3.988434
301.50000, 
302.00000,4.000000
302.50000, 
303.00000,3.993286
303.50000, 
304.00000,3.990173
304.50000, 
305.00000,4.000000
305.50000, 
306.00000,3.976898
306.50000, 
307.00000,3.929077
307.50000, 
308.00000,3.875092
308.50000, 
309.00000,3.919662
309.50000, 
310.00000,3.958923
310.50000, 
311.00000,3.917297
311.50000, 
312.00000,4.000000
312.50000, 
313.00000,3.939560
313.50000, 
314.00000,3.896683
314.50000, 
315.00000,3.947601
315.50000, 
316.00000,3.968552
316.50000, 
317.00000,3.996475
317.50000, 
318.00000,3.955658
318.50000, 
319.00000,3.901947
319.50000, 
320.00000,3.965897
320.50000, 
321.00000,3.966949
321.50000, 
322.00000,4.000000
322.50000, 
323.00000,3.926041
323.50000, 
324.00000,3.978241
324.50000, 
325.00000,3.994751
325.50000, 
326.00000,3.965607
326.50000, 
327.00000,3.979721
327.50000, 
328.00000,3.935120
328.50000, 
329.00000,3.903061
329.50000, 
330.00000,3.927399
330.50000, 
331.00000,3.775635
331.50000, 
332.00000,4.000000
332.50000, 
333.00000,3.953140
333.50000, 
334.00000,3.891846
334.50000, 
335.00000,3.877533
335.50000, 
336.00000,3.894745
336.50000, 
337.00000,3.955933
337.50000, 
338.00000,3.778152
338.50000, 
339.00000,3.963425
339.50000, 
340.00000,3.970657
340.50000, 
341.00000,3.968124
341.50000, 
342.00000,3.869919
342.50000, 
343.00000,3.912674
343.50000, 
344.00000,3.978363
344.50000, 
345.00000,3.686752
345.50000, 
346.00000,3.964523
346.50000, 
347.00000,3.875854
347.50000, 
348.00000,3.987656
348.50000, 
349.00000,3.967834
349.50000, 
350.00000,3.802597
350.50000, 
351.00000,3.948975
351.50000, 
352.00000,3.918793
352.50000, 
353.00000,3.959091
353.50000, 
354.00000,3.871277
354.50000, 
355.00000,3.975174
355.50000, 
356.00000,3.858353
356.50000, 
357.00000,3.839661
357.50000, 
358.00000,3.941681
358.50000, 
359.00000,4.000000
359.50000, 
360.00000,3.981201
360.50000, 
361.00000,3.894791
361.50000, 
362.00000,3.935379
362.50000, 
363.00000,3.933243
363.50000, 
364.00000,3.978607
364.50000, 
365.00000,3.822189
365.50000, 
366.00000,4.000000
366.50000, 
367.00000,3.846664
367.50000, 
368.00000,3.719589
368.50000, 
369.00000,3.886276
369.50000, 
370.00000,3.932495
370.50000, 
371.00000,3.950394
371.50000, 
372.00000,3.927765
372.50000, 
373.00000,3.981277
373.50000, 
374.00000,3.978455
374.50000, 
375.00000,3.946182
375.50000, 
376.00000,3.828705
376.50000, 
377.00000,3.934738
377.50000, 
378.00000,3.855850
378.50000, 
379.00000,3.851059
379.50000, 
380.00000,3.756088
380.50000, 
381.00000,3.570587
381.50000, 
382.00000,3.479980
382.50000, 
383.00000,3.127319
383.50000, 
384.00000,2.905945
384.50000, 
385.00000,2.671936
385.50000, 
386.00000,2.479736
386.50000, 
387.00000,2.293243
387.50000, 
388.00000,2.121719
388.50000, 
389.00000,1.976578
389.50000, 
390.00000,1.833923
390.50000, 
391.00000,1.716843
391.50000, 
392.00000,1.613037
392.50000, 
393.00000,1.520187
393.50000, 
394.00000,1.431854
394.50000, 
395.00000,1.356262
395.50000, 
396.00000,1.288086
396.50000, 
397.00000,1.227982
397.50000, 
398.00000,1.176941
398.50000, 
399.00000,1.132172
399.50000, 
400.00000,1.095383
400.50000, 
401.00000,1.065323
401.50000, 
402.00000,1.040497
402.50000, 
403.00000,1.020355
403.50000, 
404.00000,1.003387
404.50000, 
405.00000,0.990524
405.50000, 
406.00000,0.980789
406.50000, 
407.00000,0.973572
407.50000, 
408.00000,0.968155
408.50000, 
409.00000,0.964874
409.50000, 
410.00000,0.962448
410.50000, 
411.00000,0.961288
411.50000, 
412.00000,0.961243
412.50000, 
413.00000,0.961578
413.50000, 
414.00000,0.962646
414.50000, 
415.00000,0.964096
415.50000, 
416.00000,0.965729
416.50000, 
417.00000,0.967621
417.50000, 
418.00000,0.970566
418.50000, 
419.00000,0.973236
419.50000, 
420.00000,0.976257
420.50000, 
421.00000,0.979904
421.50000, 
422.00000,0.983383
422.50000, 
423.00000,0.986938
423.50000, 
424.00000,0.990692
424.50000, 
425.00000,0.994720
425.50000, 
426.00000,0.999084
426.50000, 
427.00000,1.003342
427.50000, 
428.00000,1.008072
428.50000, 
429.00000,1.012817
429.50000, 
430.00000,1.017334
430.50000, 
431.00000,1.022324
431.50000, 
432.00000,1.027435
432.50000, 
433.00000,1.032303
433.50000, 
434.00000,1.037949
434.50000, 
435.00000,1.043060
435.50000, 
436.00000,1.048019
436.50000, 
437.00000,1.053772
437.50000, 
438.00000,1.059296
438.50000, 
439.00000,1.064957
439.50000, 
440.00000,1.070572
440.50000, 
441.00000,1.076080
441.50000, 
442.00000,1.081360
442.50000, 
443.00000,1.086853
443.50000, 
444.00000,1.092682
444.50000, 
445.00000,1.099152
445.50000, 
446.00000,1.104721
446.50000, 
447.00000,1.110367
447.50000, 
448.00000,1.116760
448.50000, 
449.00000,1.122803
449.50000, 
450.00000,1.128586
450.50000, 
451.00000,1.134369
451.50000, 
452.00000,1.140854
452.50000, 
453.00000,1.147049
453.50000, 
454.00000,1.153748
454.50000, 
455.00000,1.160080
455.50000, 
456.00000,1.166718
456.50000, 
457.00000,1.173782
457.50000, 
458.00000,1.180603
458.50000, 
459.00000,1.187332
459.50000, 
460.00000,1.194199
460.50000, 
461.00000,1.201233
461.50000, 
462.00000,1.207672
462.50000, 
463.00000,1.214523
463.50000, 
464.00000,1.221924
464.50000, 
465.00000,1.228653
465.50000, 
466.00000,1.236053
466.50000, 
467.00000,1.242996
467.50000, 
468.00000,1.250519
468.50000, 
469.00000,1.257538
469.50000, 
470.00000,1.265686
470.50000, 
471.00000,1.273560
471.50000, 
472.00000,1.282883
472.50000, 
473.00000,1.292953
473.50000, 
474.00000,1.300995
474.50000, 
475.00000,1.305817
475.50000, 
476.00000,1.310287
476.50000, 
477.00000,1.314117
477.50000, 
478.00000,1.317642
478.50000, 
479.00000,1.320023
479.50000, 
480.00000,1.321167
480.50000, 
481.00000,1.321732
481.50000, 
482.00000,1.321442
482.50000, 
483.00000,1.319977
483.50000, 
484.00000,1.317520
484.50000, 
485.00000,1.314499
485.50000, 
486.00000,1.311325
486.50000, 
487.00000,1.307846
487.50000, 
488.00000,1.304657
488.50000, 
489.00000,1.302185
489.50000, 
490.00000,1.300797
490.50000, 
491.00000,1.300323
491.50000, 
492.00000,1.301422
492.50000, 
493.00000,1.303528
493.50000, 
494.00000,1.306839
494.50000, 
495.00000,1.311081
495.50000, 
496.00000,1.316208
496.50000, 
497.00000,1.322052
497.50000, 
498.00000,1.328415
498.50000, 
499.00000,1.334961
499.50000, 
500.00000,1.341629
500.50000, 
501.00000,1.348740
501.50000, 
502.00000,1.355911
502.50000, 
503.00000,1.362793
503.50000, 
504.00000,1.369507
504.50000, 
505.00000,1.376419
505.50000, 
506.00000,1.382965
506.50000, 
507.00000,1.389206
507.50000, 
508.00000,1.395432
508.50000, 
509.00000,1.401138
509.50000, 
510.00000,1.406509
510.50000, 
511.00000,1.411407
511.50000, 
512.00000,1.415787
512.50000, 
513.00000,1.419846
513.50000, 
514.00000,1.423523
514.50000, 
515.00000,1.426956
515.50000, 
516.00000,1.429703
516.50000, 
517.00000,1.432358
517.50000, 
518.00000,1.434784
518.50000, 
519.00000,1.436493
519.50000, 
520.00000,1.438049
520.50000, 
521.00000,1.439316
521.50000, 
522.00000,1.440430
522.50000, 
523.00000,1.441116
523.50000, 
524.00000,1.441406
524.50000, 
525.00000,1.441360
525.50000, 
526.00000,1.441391
526.50000, 
527.00000,1.441498
527.50000, 
528.00000,1.441284
528.50000, 
529.00000,1.440857
529.50000, 
530.00000,1.440506
530.50000, 
531.00000,1.439636
531.50000, 
532.00000,1.439468
532.50000, 
533.00000,1.438904
533.50000, 
534.00000,1.438217
534.50000, 
535.00000,1.438095
535.50000, 
536.00000,1.437286
536.50000, 
537.00000,1.436859
537.50000, 
538.00000,1.436676
538.50000, 
539.00000,1.436615
539.50000, 
540.00000,1.436768
540.50000, 
541.00000,1.436722
541.50000, 
542.00000,1.436905
542.50000, 
543.00000,1.437119
543.50000, 
544.00000,1.437073
544.50000, 
545.00000,1.437119
545.50000, 
546.00000,1.437210
546.50000, 
547.00000,1.437027
547.50000, 
548.00000,1.436554
548.50000, 
549.00000,1.435791
549.50000, 
550.00000,1.434937
550.50000, 
551.00000,1.433838
551.50000, 
552.00000,1.432159
552.50000, 
553.00000,1.430283
553.50000, 
554.00000,1.427704
554.50000, 
555.00000,1.424622
555.50000, 
556.00000,1.421143
556.50000, 
557.00000,1.417038
557.50000, 
558.00000,1.412460
558.50000, 
559.00000,1.407166
559.50000, 
560.00000,1.401459
560.50000, 
561.00000,1.395065
561.50000, 
562.00000,1.388336
562.50000, 
563.00000,1.381134
563.50000, 
564.00000,1.373383
564.50000, 
565.00000,1.365051
565.50000, 
566.00000,1.356552
566.50000, 
567.00000,1.347717
567.50000, 
568.00000,1.338516
568.50000, 
569.00000,1.328964
569.50000, 
570.00000,1.319366
570.50000, 
571.00000,1.309250
571.50000, 
572.00000,1.299210
572.50000, 
573.00000,1.289520
573.50000, 
574.00000,1.279617
574.50000, 
575.00000,1.269043
575.50000, 
576.00000,1.258835
576.50000, 
577.00000,1.248779
577.50000, 
578.00000,1.239044
578.50000, 
579.00000,1.229797
579.50000, 
580.00000,1.221130
580.50000, 
581.00000,1.212830
581.50000, 
582.00000,1.204773
582.50000, 
583.00000,1.197372
583.50000, 
584.00000,1.190308
584.50000, 
585.00000,1.183807
585.50000, 
586.00000,1.177963
586.50000, 
587.00000,1.172836
587.50000, 
588.00000,1.168091
588.50000, 
589.00000,1.163803
589.50000, 
590.00000,1.159912
590.50000, 
591.00000,1.156509
591.50000, 
592.00000,1.153336
592.50000, 
593.00000,1.150146
593.50000, 
594.00000,1.147446
594.50000, 
595.00000,1.144547
595.50000, 
596.00000,1.141968
596.50000, 
597.00000,1.139236
597.50000, 
598.00000,1.136276
598.50000, 
599.00000,1.133102
599.50000, 
600.00000,1.129623
600.50000, 
601.00000,1.125595
601.50000, 
602.00000,1.120987
602.50000, 
603.00000,1.115799
603.50000, 
604.00000,1.109879
604.50000, 
605.00000,1.103195
605.50000, 
606.00000,1.095688
606.50000, 
607.00000,1.087204
607.50000, 
608.00000,1.078186
608.50000, 
609.00000,1.068100
609.50000, 
610.00000,1.057327
610.50000, 
611.00000,1.045944
611.50000, 
612.00000,1.033569
612.50000, 
613.00000,1.020615
613.50000, 
614.00000,1.006699
614.50000, 
615.00000,0.991974
615.50000, 
616.00000,0.976700
616.50000, 
617.00000,0.961105
617.50000, 
618.00000,0.944611
618.50000, 
619.00000,0.928085
619.50000, 
620.00000,0.911285
620.50000, 
621.00000,0.893738
621.50000, 
622.00000,0.875870
622.50000, 
623.00000,0.857498
623.50000, 
624.00000,0.838669
624.50000, 
625.00000,0.820160
625.50000, 
626.00000,0.802216
626.50000, 
627.00000,0.784622
627.50000, 
628.00000,0.767059
628.50000, 
629.00000,0.750137
629.50000, 
630.00000,0.734009
630.50000, 
631.00000,0.718704
631.50000, 
632.00000,0.704117
632.50000, 
633.00000,0.691696
633.50000, 
634.00000,0.682495
634.50000, 
635.00000,0.668182
635.50000, 
636.00000,0.647446
636.50000, 
637.00000,0.625183
637.50000, 
638.00000,0.602722
638.50000, 
639.00000,0.579376
639.50000, 
640.00000,0.556549
640.50000, 
641.00000,0.534470
641.50000, 
642.00000,0.513382
642.50000, 
643.00000,0.494781
643.50000, 
644.00000,0.478622
644.50000, 
645.00000,0.465332
645.50000, 
646.00000,0.454697
646.50000, 
647.00000,0.446777
647.50000, 
648.00000,0.441071
648.50000, 
649.00000,0.436905
649.50000, 
650.00000,0.434204
650.50000, 
651.00000,0.432373
651.50000, 
652.00000,0.431396
652.50000, 
653.00000,0.430710
653.50000, 
654.00000,0.430420
654.50000, 
655.00000,0.430191
655.50000, 
656.00000,0.430115
656.50000, 
657.00000,0.430191
657.50000, 
658.00000,0.430237
658.50000, 
659.00000,0.430237
659.50000, 
660.00000,0.430237
660.50000, 
661.00000,0.430145
661.50000, 
662.00000,0.430023
662.50000, 
663.00000,0.430069
663.50000, 
664.00000,0.429840
664.50000, 
665.00000,0.429596
665.50000, 
666.00000,0.429260
666.50000, 
667.00000,0.429169
667.50000, 
668.00000,0.428711
668.50000, 
669.00000,0.428421
669.50000, 
670.00000,0.427948
670.50000, 
671.00000,0.427643
671.50000, 
672.00000,0.427124
672.50000, 
673.00000,0.426819
673.50000, 
674.00000,0.426147
674.50000, 
675.00000,0.425766
675.50000, 
676.00000,0.425034
676.50000, 
677.00000,0.424698
677.50000, 
678.00000,0.424103
678.50000, 
679.00000,0.423630
679.50000, 
680.00000,0.422836
680.50000, 
681.00000,0.422409
681.50000, 
682.00000,0.421661
682.50000, 
683.00000,0.421173
683.50000, 
684.00000,0.420334
684.50000, 
685.00000,0.419815
685.50000, 
686.00000,0.418945
686.50000, 
687.00000,0.418427
687.50000, 
688.00000,0.417526
688.50000, 
689.00000,0.416977
689.50000, 
690.00000,0.416031
690.50000, 
691.00000,0.415527
691.50000, 
692.00000,0.414612
692.50000, 
693.00000,0.414017
693.50000, 
694.00000,0.413177
694.50000, 
695.00000,0.412460
695.50000, 
696.00000,0.411591
696.50000, 
697.00000,0.410828
697.50000, 
698.00000,0.409973
698.50000, 
699.00000,0.409149
699.50000, 
700.00000,0.408249
700.50000, 
701.00000,0.407303
701.50000, 
702.00000,0.406525
702.50000, 
703.00000,0.405640
703.50000, 
704.00000,0.404907
704.50000, 
705.00000,0.403961
705.50000, 
706.00000,0.403305
706.50000, 
707.00000,0.402100
707.50000, 
708.00000,0.401489
708.50000, 
709.00000,0.400467
709.50000, 
710.00000,0.399811
710.50000, 
711.00000,0.398712
711.50000, 
712.00000,0.397903
712.50000, 
713.00000,0.397018
713.50000, 
714.00000,0.396149
714.50000, 
715.00000,0.395370
715.50000, 
716.00000,0.394272
716.50000, 
717.00000,0.393661
717.50000, 
718.00000,0.392365
718.50000, 
719.00000,0.391769
719.50000, 
720.00000,0.390610
720.50000, 
721.00000,0.389816
721.50000, 
722.00000,0.388748
722.50000, 
723.00000,0.387878
723.50000, 
724.00000,0.387024
724.50000, 
725.00000,0.385910
725.50000, 
726.00000,0.385254
726.50000, 
727.00000,0.384033
727.50000, 
728.00000,0.383392
728.50000, 
729.00000,0.382172
729.50000, 
730.00000,0.381500
730.50000, 
731.00000,0.380508
731.50000, 
732.00000,0.379547
732.50000, 
733.00000,0.378937
733.50000, 
734.00000,0.377655
734.50000, 
735.00000,0.377121
735.50000, 
736.00000,0.376068
736.50000, 
737.00000,0.375290
737.50000, 
738.00000,0.374512
738.50000, 
739.00000,0.373428
739.50000, 
740.00000,0.372986
740.50000, 
741.00000,0.371719
741.50000, 
742.00000,0.371033
742.50000, 
743.00000,0.370087
743.50000, 
744.00000,0.369141
744.50000, 
745.00000,0.368439
745.50000, 
746.00000,0.366974
746.50000, 
747.00000,0.366318
747.50000, 
748.00000,0.364990
748.50000, 
749.00000,0.364212
749.50000, 
750.00000,0.363403
750.50000, 
751.00000,0.362198
751.50000, 
752.00000,0.361725
752.50000, 
753.00000,0.360428
753.50000, 
754.00000,0.359833
754.50000, 
755.00000,0.358978
755.50000, 
756.00000,0.357925
756.50000, 
757.00000,0.357376
757.50000, 
758.00000,0.356216
758.50000, 
759.00000,0.355652
759.50000, 
760.00000,0.355072
760.50000, 
761.00000,0.353897
761.50000, 
762.00000,0.353333
762.50000, 
763.00000,0.352295
763.50000, 
764.00000,0.351379
764.50000, 
765.00000,0.350800
765.50000, 
766.00000,0.349701
766.50000, 
767.00000,0.349197
767.50000, 
768.00000,0.348129
768.50000, 
769.00000,0.347275
769.50000, 
770.00000,0.346756
770.50000, 
771.00000,0.345551
771.50000, 
772.00000,0.345200
772.50000, 
773.00000,0.344162
773.50000, 
774.00000,0.343338
774.50000, 
775.00000,0.342834
775.50000, 
776.00000,0.341660
776.50000, 
777.00000,0.341125
777.50000, 
778.00000,0.340439
778.50000, 
779.00000,0.339432
779.50000, 
780.00000,0.339005
780.50000, 
781.00000,0.338135
781.50000, 
782.00000,0.337219
782.50000, 
783.00000,0.336899
783.50000, 
784.00000,0.335739
784.50000, 
785.00000,0.335220
785.50000, 
786.00000,0.334518
786.50000, 
787.00000,0.333557
787.50000, 
788.00000,0.332993
788.50000, 
789.00000,0.332123
789.50000, 
790.00000,0.331207
790.50000, 
791.00000,0.330811
791.50000, 
792.00000,0.329620
792.50000, 
793.00000,0.329117
793.50000, 
794.00000,0.328354
794.50000, 
795.00000,0.327362
795.50000, 
796.00000,0.326874
796.50000, 
797.00000,0.325943
797.50000, 
798.00000,0.324966
798.50000, 
799.00000,0.324493
799.50000, 
800.00000,0.323456
800.50000, 
801.00000,0.322662
801.50000, 
802.00000,0.322205
802.50000, 
803.00000,0.321014
803.50000, 
804.00000,0.320206
804.50000, 
805.00000,0.319809
805.50000, 
806.00000,0.318497
806.50000, 
807.00000,0.317780
807.50000, 
808.00000,0.316940
808.50000, 
809.00000,0.315735
809.50000, 
810.00000,0.314957
810.50000, 
811.00000,0.314270
811.50000, 
812.00000,0.312836
812.50000, 
813.00000,0.312119
813.50000, 
814.00000,0.310852
814.50000, 
815.00000,0.309647
815.50000, 
816.00000,0.308762
816.50000, 
817.00000,0.307693
817.50000, 
818.00000,0.306305
818.50000, 
819.00000,0.305450
819.50000, 
820.00000,0.303848
820.50000, 
821.00000,0.302872
821.50000, 
822.00000,0.301819
822.50000, 
823.00000,0.300674
823.50000, 
824.00000,0.299118
824.50000, 
825.00000,0.298325
825.50000, 
826.00000,0.296722
826.50000, 
827.00000,0.295410
827.50000, 
828.00000,0.294357
828.50000, 
829.00000,0.292786
829.50000, 
830.00000,0.291412
830.50000, 
831.00000,0.290192
831.50000, 
832.00000,0.288773
832.50000, 
833.00000,0.286957
833.50000, 
834.00000,0.286011
834.50000, 
835.00000,0.284088
835.50000, 
836.00000,0.282608
836.50000, 
837.00000,0.281250
837.50000, 
838.00000,0.279617
838.50000, 
839.00000,0.277740
839.50000, 
840.00000,0.276611
840.50000, 
841.00000,0.274887
841.50000, 
842.00000,0.273163
842.50000, 
843.00000,0.271820
843.50000, 
844.00000,0.270020
844.50000, 
845.00000,0.268280
845.50000, 
846.00000,0.266907
846.50000, 
847.00000,0.265427
847.50000, 
848.00000,0.263397
848.50000, 
849.00000,0.262177
849.50000, 
850.00000,0.260529
850.50000, 
851.00000,0.258743
851.50000, 
852.00000,0.257202
852.50000, 
853.00000,0.255569
853.50000, 
854.00000,0.253845
854.50000, 
855.00000,0.251999
855.50000, 
856.00000,0.250687
856.50000, 
857.00000,0.248581
857.50000, 
858.00000,0.246979
858.50000, 
859.00000,0.245422
859.50000, 
860.00000,0.243607
860.50000, 
861.00000,0.241882
861.50000, 
862.00000,0.240341
862.50000, 
863.00000,0.238831
863.50000, 
864.00000,0.236862
864.50000, 
865.00000,0.235519
865.50000, 
866.00000,0.233734
866.50000, 
867.00000,0.232269
867.50000, 
868.00000,0.230759
868.50000, 
869.00000,0.229309
869.50000, 
870.00000,0.227814
870.50000, 
871.00000,0.226181
871.50000, 
872.00000,0.224976
872.50000, 
873.00000,0.223450
873.50000, 
874.00000,0.221985
874.50000, 
875.00000,0.220718
875.50000, 
876.00000,0.219208
876.50000, 
877.00000,0.217896
877.50000, 
878.00000,0.216431
878.50000, 
879.00000,0.215271
879.50000, 
880.00000,0.213730
880.50000, 
881.00000,0.212326
881.50000, 
882.00000,0.211090
882.50000, 
883.00000,0.209564
883.50000, 
884.00000,0.208405
884.50000, 
885.00000,0.207184
885.50000, 
886.00000,0.206055
886.50000, 
887.00000,0.204819
887.50000, 
888.00000,0.203568
888.50000, 
889.00000,0.202698
889.50000, 
890.00000,0.201324
890.50000, 
891.00000,0.200455
891.50000, 
892.00000,0.199554
892.50000, 
893.00000,0.198502
893.50000, 
894.00000,0.197739
894.50000, 
895.00000,0.196732
895.50000, 
896.00000,0.195938
896.50000, 
897.00000,0.195190
897.50000, 
898.00000,0.194244
898.50000, 
899.00000,0.193558
899.50000, 
900.00000,0.192947
900.50000, 
901.00000, 
901.50000, 
902.00000, 
902.50000, 
903.00000, 
903.50000, 
904.00000, 
904.50000, 
905.00000, 
905.50000, 
906.00000, 
906.50000, 
907.00000, 
907.50000, 
908.00000, 
908.50000, 
909.00000, 
909.50000, 
910.00000, 
910.50000, 
911.00000, 
911.50000, 
912.00000, 
912.50000, 
913.00000, 
913.50000, 
914.00000, 
914.50000, 
915.00000, 
915.50000, 
916.00000, 
916.50000, 
917.00000, 
917.50000, 
918.00000, 
918.50000, 
919.00000, 
919.50000, 
920.00000, 
920.50000, 
921.00000, 
921.50000, 
922.00000, 
922.50000, 
923.00000, 
923.50000, 
924.00000, 
924.50000, 
925.00000, 
925.50000, 
926.00000, 
926.50000, 
927.00000, 
927.50000, 
928.00000, 
928.50000, 
929.00000, 
929.50000, 
930.00000, 
930.50000, 
931.00000, 
931.50000, 
932.00000, 
932.50000, 
933.00000, 
933.50000, 
934.00000, 
934.50000, 
935.00000, 
935.50000, 
936.00000, 
936.50000, 
937.00000, 
937.50000, 
938.00000, 
938.50000, 
939.00000, 
939.50000, 
940.00000, 
940.50000, 
941.00000, 
941.50000, 
942.00000, 
942.50000, 
943.00000, 
943.50000, 
944.00000, 
944.50000, 
945.00000, 
945.50000, 
946.00000, 
946.50000, 
947.00000, 
947.50000, 
948.00000, 
948.50000, 
949.00000, 
949.50000, 
950.00000, 
950.50000, 
951.00000, 
951.50000, 
952.00000, 
952.50000, 
953.00000, 
953.50000, 
954.00000, 
954.50000, 
955.00000, 
955.50000, 
956.00000, 
956.50000, 
957.00000, 
957.50000, 
958.00000, 
958.50000, 
959.00000, 
959.50000, 
960.00000, 
960.50000, 
961.00000, 
961.50000, 
962.00000, 
962.50000, 
963.00000, 
963.50000, 
964.00000, 
964.50000, 
965.00000, 
965.50000, 
966.00000, 
966.50000, 
967.00000, 
967.50000, 
968.00000, 
968.50000, 
969.00000, 
969.50000, 
970.00000, 
970.50000, 
971.00000, 
971.50000, 
972.00000, 
972.50000, 
973.00000, 
973.50000, 
974.00000, 
974.50000, 
975.00000, 
975.50000, 
976.00000, 
976.50000, 
977.00000, 
977.50000, 
978.00000, 
978.50000, 
979.00000, 
979.50000, 
980.00000, 
980.50000, 
981.00000, 
981.50000, 
982.00000, 
982.50000, 
983.00000, 
983.50000, 
984.00000, 
984.50000, 
985.00000, 
985.50000, 
986.00000, 
986.50000, 
987.00000, 
987.50000, 
988.00000, 
988.50000, 
989.00000, 
989.50000, 
990.00000, 
990.50000, 
991.00000, 
991.50000, 
992.00000, 
992.50000, 
993.00000, 
993.50000, 
994.00000, 
994.50000, 
995.00000, 
995.50000, 
996.00000, 
996.50000, 
997.00000, 
997.50000, 
998.00000, 
998.50000, 
999.00000, 
999.50000, 
1000.00000, 
1000.50000, 
1001.00000, 
1001.50000, 
1002.00000, 
1002.50000, 
1003.00000, 
1003.50000, 
1004.00000, 
1004.50000, 
1005.00000, 
1005.50000, 
1006.00000, 
1006.50000, 
1007.00000, 
1007.50000, 
1008.00000, 
1008.50000, 
1009.00000, 
1009.50000, 
1010.00000, 
1010.50000, 
1011.00000, 
1011.50000, 
1012.00000, 
1012.50000, 
1013.00000, 
1013.50000, 
1014.00000, 
1014.50000, 
1015.00000, 
1015.50000, 
1016.00000, 
1016.50000, 
1017.00000, 
1017.50000, 
1018.00000, 
1018.50000, 
1019.00000, 
1019.50000, 
1020.00000, 
1020.50000, 
1021.00000, 
1021.50000, 
1022.00000, 
1022.50000, 
1023.00000, 
1023.50000, 
1024.00000, 
1024.50000, 
1025.00000, 
1025.50000, 
1026.00000, 
1026.50000, 
1027.00000, 
1027.50000, 
1028.00000, 
1028.50000, 
1029.00000, 
1029.50000, 
1030.00000, 
1030.50000, 
1031.00000, 
1031.50000, 
1032.00000, 
1032.50000, 
1033.00000, 
1033.50000, 
1034.00000, 
1034.50000, 
1035.00000, 
1035.50000, 
1036.00000, 
1036.50000, 
1037.00000, 
1037.50000, 
1038.00000, 
1038.50000, 
1039.00000, 
1039.50000, 
1040.00000, 
1040.50000, 
1041.00000, 
1041.50000, 
1042.00000, 
1042.50000, 
1043.00000, 
1043.50000, 
1044.00000, 
1044.50000, 
1045.00000, 
1045.50000, 
1046.00000, 
1046.50000, 
1047.00000, 
1047.50000, 
1048.00000, 
1048.50000, 
1049.00000, 
1049.50000, 
1050.00000, 
1050.50000, 
1051.00000, 
1051.50000, 
1052.00000, 
1052.50000, 
1053.00000, 
1053.50000, 
1054.00000, 
1054.50000, 
1055.00000, 
1055.50000, 
1056.00000, 
1056.50000, 
1057.00000, 
1057.50000, 
1058.00000, 
1058.50000, 
1059.00000, 
1059.50000, 
1060.00000, 
1060.50000, 
1061.00000, 
1061.50000, 
1062.00000, 
1062.50000, 
1063.00000, 
1063.50000, 
1064.00000, 
1064.50000, 
1065.00000, 
1065.50000, 
1066.00000, 
1066.50000, 
1067.00000, 
1067.50000, 
1068.00000, 
1068.50000, 
1069.00000, 
1069.50000, 
1070.00000, 
1070.50000, 
1071.00000, 
1071.50000, 
1072.00000, 
1072.50000, 
1073.00000, 
1073.50000, 
1074.00000, 
1074.50000, 
1075.00000, 
1075.50000, 
1076.00000, 
1076.50000, 
1077.00000, 
1077.50000, 
1078.00000, 
1078.50000, 
1079.00000, 
1079.50000, 
1080.00000, 
1080.50000, 
1081.00000, 
1081.50000, 
1082.00000, 
1082.50000, 
1083.00000, 
1083.50000, 
1084.00000, 
1084.50000, 
1085.00000, 
1085.50000, 
1086.00000, 
1086.50000, 
1087.00000, 
1087.50000, 
1088.00000, 
1088.50000, 
1089.00000, 
1089.50000, 
1090.00000, 
1090.50000, 
1091.00000, 
1091.50000, 
1092.00000, 
1092.50000, 
1093.00000, 
1093.50000, 
1094.00000, 
1094.50000, 
1095.00000, 
1095.50000, 
1096.00000, 
1096.50000, 
1097.00000, 
1097.50000, 
1098.00000, 
1098.50000, 
1099.00000, 
1099.50000, 
1100.00000, 
