"0%V - RawData"
"Wavelength nm.","Abs."
300.00000,4.000000
300.50000, 
301.00000,4.000000
301.50000, 
302.00000,4.000000
302.50000, 
303.00000,4.000000
303.50000, 
304.00000,4.000000
304.50000, 
305.00000,4.000000
305.50000, 
306.00000,4.000000
306.50000, 
307.00000,4.000000
307.50000, 
308.00000,4.000000
308.50000, 
309.00000,4.000000
309.50000, 
310.00000,4.000000
310.50000, 
311.00000,4.000000
311.50000, 
312.00000,4.000000
312.50000, 
313.00000,4.000000
313.50000, 
314.00000,4.000000
314.50000, 
315.00000,4.000000
315.50000, 
316.00000,4.000000
316.50000, 
317.00000,4.000000
317.50000, 
318.00000,4.000000
318.50000, 
319.00000,4.000000
319.50000, 
320.00000,4.000000
320.50000, 
321.00000,4.000000
321.50000, 
322.00000,4.000000
322.50000, 
323.00000,4.000000
323.50000, 
324.00000,3.995239
324.50000, 
325.00000,4.000000
325.50000, 
326.00000,4.000000
326.50000, 
327.00000,4.000000
327.50000, 
328.00000,3.989456
328.50000, 
329.00000,4.000000
329.50000, 
330.00000,4.000000
330.50000, 
331.00000,4.000000
331.50000, 
332.00000,4.000000
332.50000, 
333.00000,4.000000
333.50000, 
334.00000,4.000000
334.50000, 
335.00000,4.000000
335.50000, 
336.00000,4.000000
336.50000, 
337.00000,4.000000
337.50000, 
338.00000,4.000000
338.50000, 
339.00000,4.000000
339.50000, 
340.00000,4.000000
340.50000, 
341.00000,4.000000
341.50000, 
342.00000,4.000000
342.50000, 
343.00000,4.000000
343.50000, 
344.00000,4.000000
344.50000, 
345.00000,4.000000
345.50000, 
346.00000,4.000000
346.50000, 
347.00000,4.000000
347.50000, 
348.00000,4.000000
348.50000, 
349.00000,4.000000
349.50000, 
350.00000,4.000000
350.50000, 
351.00000,3.994431
351.50000, 
352.00000,4.000000
352.50000, 
353.00000,4.000000
353.50000, 
354.00000,4.000000
354.50000, 
355.00000,4.000000
355.50000, 
356.00000,4.000000
356.50000, 
357.00000,4.000000
357.50000, 
358.00000,4.000000
358.50000, 
359.00000,4.000000
359.50000, 
360.00000,4.000000
360.50000, 
361.00000,4.000000
361.50000, 
362.00000,4.000000
362.50000, 
363.00000,4.000000
363.50000, 
364.00000,4.000000
364.50000, 
365.00000,4.000000
365.50000, 
366.00000,4.000000
366.50000, 
367.00000,3.973282
367.50000, 
368.00000,3.999023
368.50000, 
369.00000,4.000000
369.50000, 
370.00000,4.000000
370.50000, 
371.00000,4.000000
371.50000, 
372.00000,3.991440
372.50000, 
373.00000,4.000000
373.50000, 
374.00000,4.000000
374.50000, 
375.00000,4.000000
375.50000, 
376.00000,4.000000
376.50000, 
377.00000,4.000000
377.50000, 
378.00000,4.000000
378.50000, 
379.00000,3.991898
379.50000, 
380.00000,3.983475
380.50000, 
381.00000,3.982727
381.50000, 
382.00000,3.940033
382.50000, 
383.00000,3.473236
383.50000, 
384.00000,3.021378
384.50000, 
385.00000,2.764633
385.50000, 
386.00000,2.518814
386.50000, 
387.00000,2.322800
387.50000, 
388.00000,2.144745
388.50000, 
389.00000,1.990814
389.50000, 
390.00000,1.851685
390.50000, 
391.00000,1.727219
391.50000, 
392.00000,1.624542
392.50000, 
393.00000,1.534698
393.50000, 
394.00000,1.452225
394.50000, 
395.00000,1.386063
395.50000, 
396.00000,1.328537
396.50000, 
397.00000,1.280975
397.50000, 
398.00000,1.242950
398.50000, 
399.00000,1.209824
399.50000, 
400.00000,1.180710
400.50000, 
401.00000,1.155182
401.50000, 
402.00000,1.130600
402.50000, 
403.00000,1.108887
403.50000, 
404.00000,1.087494
404.50000, 
405.00000,1.068771
405.50000, 
406.00000,1.051254
406.50000, 
407.00000,1.035507
407.50000, 
408.00000,1.021881
408.50000, 
409.00000,1.009735
409.50000, 
410.00000,0.997635
410.50000, 
411.00000,0.988007
411.50000, 
412.00000,0.979935
412.50000, 
413.00000,0.972549
413.50000, 
414.00000,0.965607
414.50000, 
415.00000,0.959198
415.50000, 
416.00000,0.954559
416.50000, 
417.00000,0.949829
417.50000, 
418.00000,0.945190
418.50000, 
419.00000,0.941452
419.50000, 
420.00000,0.938034
420.50000, 
421.00000,0.934875
421.50000, 
422.00000,0.931854
422.50000, 
423.00000,0.929596
423.50000, 
424.00000,0.927322
424.50000, 
425.00000,0.925308
425.50000, 
426.00000,0.923355
426.50000, 
427.00000,0.921829
427.50000, 
428.00000,0.920609
428.50000, 
429.00000,0.919617
429.50000, 
430.00000,0.918747
430.50000, 
431.00000,0.918030
431.50000, 
432.00000,0.917770
432.50000, 
433.00000,0.917389
433.50000, 
434.00000,0.916992
434.50000, 
435.00000,0.916580
435.50000, 
436.00000,0.916351
436.50000, 
437.00000,0.916000
437.50000, 
438.00000,0.915497
438.50000, 
439.00000,0.915375
439.50000, 
440.00000,0.915237
440.50000, 
441.00000,0.914993
441.50000, 
442.00000,0.915054
442.50000, 
443.00000,0.914795
443.50000, 
444.00000,0.914764
444.50000, 
445.00000,0.914978
445.50000, 
446.00000,0.915283
446.50000, 
447.00000,0.915558
447.50000, 
448.00000,0.915833
448.50000, 
449.00000,0.916214
449.50000, 
450.00000,0.916565
450.50000, 
451.00000,0.917084
451.50000, 
452.00000,0.917542
452.50000, 
453.00000,0.918304
453.50000, 
454.00000,0.918915
454.50000, 
455.00000,0.919617
455.50000, 
456.00000,0.920242
456.50000, 
457.00000,0.921036
457.50000, 
458.00000,0.921829
458.50000, 
459.00000,0.922684
459.50000, 
460.00000,0.923553
460.50000, 
461.00000,0.924591
461.50000, 
462.00000,0.925278
462.50000, 
463.00000,0.926239
463.50000, 
464.00000,0.927185
464.50000, 
465.00000,0.928131
465.50000, 
466.00000,0.929016
466.50000, 
467.00000,0.929672
467.50000, 
468.00000,0.930237
468.50000, 
469.00000,0.930710
469.50000, 
470.00000,0.930862
470.50000, 
471.00000,0.930283
471.50000, 
472.00000,0.928635
472.50000, 
473.00000,0.924988
473.50000, 
474.00000,0.924133
474.50000, 
475.00000,0.927704
475.50000, 
476.00000,0.932083
476.50000, 
477.00000,0.937622
477.50000, 
478.00000,0.944016
478.50000, 
479.00000,0.951569
479.50000, 
480.00000,0.960342
480.50000, 
481.00000,0.970581
481.50000, 
482.00000,0.981995
482.50000, 
483.00000,0.995361
483.50000, 
484.00000,1.010880
484.50000, 
485.00000,1.027649
485.50000, 
486.00000,1.046036
486.50000, 
487.00000,1.065750
487.50000, 
488.00000,1.085403
488.50000, 
489.00000,1.103867
489.50000, 
490.00000,1.121078
490.50000, 
491.00000,1.135513
491.50000, 
492.00000,1.147263
492.50000, 
493.00000,1.156067
493.50000, 
494.00000,1.161713
494.50000, 
495.00000,1.164261
495.50000, 
496.00000,1.164398
496.50000, 
497.00000,1.162659
497.50000, 
498.00000,1.159576
498.50000, 
499.00000,1.155716
499.50000, 
500.00000,1.151474
500.50000, 
501.00000,1.146927
501.50000, 
502.00000,1.141998
502.50000, 
503.00000,1.137238
503.50000, 
504.00000,1.133011
504.50000, 
505.00000,1.128876
505.50000, 
506.00000,1.124939
506.50000, 
507.00000,1.121445
507.50000, 
508.00000,1.118286
508.50000, 
509.00000,1.115585
509.50000, 
510.00000,1.112961
510.50000, 
511.00000,1.110657
511.50000, 
512.00000,1.108627
512.50000, 
513.00000,1.106552
513.50000, 
514.00000,1.104660
514.50000, 
515.00000,1.102814
515.50000, 
516.00000,1.101212
516.50000, 
517.00000,1.099518
517.50000, 
518.00000,1.097992
518.50000, 
519.00000,1.096313
519.50000, 
520.00000,1.094757
520.50000, 
521.00000,1.093216
521.50000, 
522.00000,1.091537
522.50000, 
523.00000,1.089981
523.50000, 
524.00000,1.088211
524.50000, 
525.00000,1.086594
525.50000, 
526.00000,1.084976
526.50000, 
527.00000,1.083389
527.50000, 
528.00000,1.081802
528.50000, 
529.00000,1.080322
529.50000, 
530.00000,1.078873
530.50000, 
531.00000,1.077530
531.50000, 
532.00000,1.076385
532.50000, 
533.00000,1.075256
533.50000, 
534.00000,1.074280
534.50000, 
535.00000,1.073471
535.50000, 
536.00000,1.072342
536.50000, 
537.00000,1.071060
537.50000, 
538.00000,1.070740
538.50000, 
539.00000,1.070572
539.50000, 
540.00000,1.070618
540.50000, 
541.00000,1.070663
541.50000, 
542.00000,1.070984
542.50000, 
543.00000,1.071503
543.50000, 
544.00000,1.072006
544.50000, 
545.00000,1.072586
545.50000, 
546.00000,1.073135
546.50000, 
547.00000,1.073868
547.50000, 
548.00000,1.074554
548.50000, 
549.00000,1.075119
549.50000, 
550.00000,1.075745
550.50000, 
551.00000,1.076248
551.50000, 
552.00000,1.076706
552.50000, 
553.00000,1.076752
553.50000, 
554.00000,1.076782
554.50000, 
555.00000,1.076584
555.50000, 
556.00000,1.076096
556.50000, 
557.00000,1.075363
557.50000, 
558.00000,1.074432
558.50000, 
559.00000,1.073059
559.50000, 
560.00000,1.071579
560.50000, 
561.00000,1.069550
561.50000, 
562.00000,1.067520
562.50000, 
563.00000,1.065140
563.50000, 
564.00000,1.062531
564.50000, 
565.00000,1.059616
565.50000, 
566.00000,1.056580
566.50000, 
567.00000,1.053360
567.50000, 
568.00000,1.049896
568.50000, 
569.00000,1.046295
569.50000, 
570.00000,1.042709
570.50000, 
571.00000,1.039139
571.50000, 
572.00000,1.035400
572.50000, 
573.00000,1.031769
573.50000, 
574.00000,1.028046
574.50000, 
575.00000,1.024109
575.50000, 
576.00000,1.020355
576.50000, 
577.00000,1.016693
577.50000, 
578.00000,1.013397
578.50000, 
579.00000,1.010147
579.50000, 
580.00000,1.007156
580.50000, 
581.00000,1.004272
581.50000, 
582.00000,1.001877
582.50000, 
583.00000,0.999649
583.50000, 
584.00000,0.997742
584.50000, 
585.00000,0.996048
585.50000, 
586.00000,0.994675
586.50000, 
587.00000,0.993591
587.50000, 
588.00000,0.992691
588.50000, 
589.00000,0.992157
589.50000, 
590.00000,0.991852
590.50000, 
591.00000,0.991791
591.50000, 
592.00000,0.991882
592.50000, 
593.00000,0.992279
593.50000, 
594.00000,0.992661
594.50000, 
595.00000,0.993149
595.50000, 
596.00000,0.993790
596.50000, 
597.00000,0.994461
597.50000, 
598.00000,0.995071
598.50000, 
599.00000,0.995712
599.50000, 
600.00000,0.996292
600.50000, 
601.00000,0.996811
601.50000, 
602.00000,0.996918
602.50000, 
603.00000,0.996918
603.50000, 
604.00000,0.996704
604.50000, 
605.00000,0.995972
605.50000, 
606.00000,0.995010
606.50000, 
607.00000,0.993637
607.50000, 
608.00000,0.991913
608.50000, 
609.00000,0.989685
609.50000, 
610.00000,0.987076
610.50000, 
611.00000,0.984146
611.50000, 
612.00000,0.980728
612.50000, 
613.00000,0.976944
613.50000, 
614.00000,0.972717
614.50000, 
615.00000,0.968277
615.50000, 
616.00000,0.963593
616.50000, 
617.00000,0.958633
617.50000, 
618.00000,0.953186
618.50000, 
619.00000,0.947449
619.50000, 
620.00000,0.941605
620.50000, 
621.00000,0.935577
621.50000, 
622.00000,0.929260
622.50000, 
623.00000,0.922684
623.50000, 
624.00000,0.915985
624.50000, 
625.00000,0.909073
625.50000, 
626.00000,0.902344
626.50000, 
627.00000,0.895447
627.50000, 
628.00000,0.888321
628.50000, 
629.00000,0.881088
629.50000, 
630.00000,0.873672
630.50000, 
631.00000,0.866028
631.50000, 
632.00000,0.857346
632.50000, 
633.00000,0.846802
633.50000, 
634.00000,0.832474
634.50000, 
635.00000,0.826736
635.50000, 
636.00000,0.836380
636.50000, 
637.00000,0.850983
637.50000, 
638.00000,0.869690
638.50000, 
639.00000,0.893829
639.50000, 
640.00000,0.922241
640.50000, 
641.00000,0.954224
641.50000, 
642.00000,0.987946
642.50000, 
643.00000,1.020264
643.50000, 
644.00000,1.048950
644.50000, 
645.00000,1.070328
645.50000, 
646.00000,1.083206
646.50000, 
647.00000,1.087021
647.50000, 
648.00000,1.082870
648.50000, 
649.00000,1.072327
649.50000, 
650.00000,1.057861
650.50000, 
651.00000,1.041550
651.50000, 
652.00000,1.024506
652.50000, 
653.00000,1.007721
653.50000, 
654.00000,0.991379
654.50000, 
655.00000,0.976135
655.50000, 
656.00000,0.962433
656.50000, 
657.00000,0.949844
657.50000, 
658.00000,0.938339
658.50000, 
659.00000,0.927795
659.50000, 
660.00000,0.917923
660.50000, 
661.00000,0.908752
661.50000, 
662.00000,0.900757
662.50000, 
663.00000,0.893250
663.50000, 
664.00000,0.886490
664.50000, 
665.00000,0.880112
665.50000, 
666.00000,0.874283
666.50000, 
667.00000,0.869049
667.50000, 
668.00000,0.864029
668.50000, 
669.00000,0.859177
669.50000, 
670.00000,0.854752
670.50000, 
671.00000,0.850388
671.50000, 
672.00000,0.846283
672.50000, 
673.00000,0.842545
673.50000, 
674.00000,0.838867
674.50000, 
675.00000,0.835449
675.50000, 
676.00000,0.832321
676.50000, 
677.00000,0.829391
677.50000, 
678.00000,0.826523
678.50000, 
679.00000,0.823822
679.50000, 
680.00000,0.821167
680.50000, 
681.00000,0.818802
681.50000, 
682.00000,0.816391
682.50000, 
683.00000,0.814255
683.50000, 
684.00000,0.812195
684.50000, 
685.00000,0.810318
685.50000, 
686.00000,0.808319
686.50000, 
687.00000,0.806427
687.50000, 
688.00000,0.804657
688.50000, 
689.00000,0.802948
689.50000, 
690.00000,0.801270
690.50000, 
691.00000,0.799698
691.50000, 
692.00000,0.798187
692.50000, 
693.00000,0.796646
693.50000, 
694.00000,0.795181
694.50000, 
695.00000,0.793671
695.50000, 
696.00000,0.792374
696.50000, 
697.00000,0.791000
697.50000, 
698.00000,0.789673
698.50000, 
699.00000,0.788330
699.50000, 
700.00000,0.787170
700.50000, 
701.00000,0.785889
701.50000, 
702.00000,0.784790
702.50000, 
703.00000,0.783630
703.50000, 
704.00000,0.782547
704.50000, 
705.00000,0.781387
705.50000, 
706.00000,0.780426
706.50000, 
707.00000,0.779282
707.50000, 
708.00000,0.778351
708.50000, 
709.00000,0.777298
709.50000, 
710.00000,0.776306
710.50000, 
711.00000,0.775391
711.50000, 
712.00000,0.774338
712.50000, 
713.00000,0.773560
713.50000, 
714.00000,0.772614
714.50000, 
715.00000,0.771622
715.50000, 
716.00000,0.770615
716.50000, 
717.00000,0.769730
717.50000, 
718.00000,0.768677
718.50000, 
719.00000,0.767731
719.50000, 
720.00000,0.766830
720.50000, 
721.00000,0.765915
721.50000, 
722.00000,0.765091
722.50000, 
723.00000,0.764175
723.50000, 
724.00000,0.763443
724.50000, 
725.00000,0.762527
725.50000, 
726.00000,0.761734
726.50000, 
727.00000,0.760895
727.50000, 
728.00000,0.760117
728.50000, 
729.00000,0.759445
729.50000, 
730.00000,0.758621
730.50000, 
731.00000,0.757874
731.50000, 
732.00000,0.757172
732.50000, 
733.00000,0.756577
733.50000, 
734.00000,0.755905
734.50000, 
735.00000,0.755264
735.50000, 
736.00000,0.754745
736.50000, 
737.00000,0.754044
737.50000, 
738.00000,0.753418
738.50000, 
739.00000,0.752838
739.50000, 
740.00000,0.752335
740.50000, 
741.00000,0.751755
741.50000, 
742.00000,0.751053
742.50000, 
743.00000,0.750549
743.50000, 
744.00000,0.750000
744.50000, 
745.00000,0.749496
745.50000, 
746.00000,0.748810
746.50000, 
747.00000,0.748108
747.50000, 
748.00000,0.747620
748.50000, 
749.00000,0.747070
749.50000, 
750.00000,0.746628
750.50000, 
751.00000,0.746063
751.50000, 
752.00000,0.745605
752.50000, 
753.00000,0.745178
753.50000, 
754.00000,0.744659
754.50000, 
755.00000,0.744232
755.50000, 
756.00000,0.743759
756.50000, 
757.00000,0.743271
757.50000, 
758.00000,0.743027
758.50000, 
759.00000,0.742615
759.50000, 
760.00000,0.742279
760.50000, 
761.00000,0.741760
761.50000, 
762.00000,0.741257
762.50000, 
763.00000,0.741150
763.50000, 
764.00000,0.740616
764.50000, 
765.00000,0.740448
765.50000, 
766.00000,0.740036
766.50000, 
767.00000,0.739548
767.50000, 
768.00000,0.739243
768.50000, 
769.00000,0.738846
769.50000, 
770.00000,0.738617
770.50000, 
771.00000,0.738342
771.50000, 
772.00000,0.737885
772.50000, 
773.00000,0.737564
773.50000, 
774.00000,0.737244
774.50000, 
775.00000,0.736832
775.50000, 
776.00000,0.736679
776.50000, 
777.00000,0.736115
777.50000, 
778.00000,0.735992
778.50000, 
779.00000,0.735535
779.50000, 
780.00000,0.735046
780.50000, 
781.00000,0.734802
781.50000, 
782.00000,0.734283
782.50000, 
783.00000,0.733932
783.50000, 
784.00000,0.733719
784.50000, 
785.00000,0.733063
785.50000, 
786.00000,0.732727
786.50000, 
787.00000,0.732391
787.50000, 
788.00000,0.731537
788.50000, 
789.00000,0.731216
789.50000, 
790.00000,0.730438
790.50000, 
791.00000,0.729950
791.50000, 
792.00000,0.729294
792.50000, 
793.00000,0.728500
793.50000, 
794.00000,0.727661
794.50000, 
795.00000,0.727051
795.50000, 
796.00000,0.725845
796.50000, 
797.00000,0.725220
797.50000, 
798.00000,0.723999
798.50000, 
799.00000,0.722870
799.50000, 
800.00000,0.721863
800.50000, 
801.00000,0.720642
801.50000, 
802.00000,0.719101
802.50000, 
803.00000,0.717972
803.50000, 
804.00000,0.716003
804.50000, 
805.00000,0.714783
805.50000, 
806.00000,0.713165
806.50000, 
807.00000,0.711197
807.50000, 
808.00000,0.709152
808.50000, 
809.00000,0.707306
809.50000, 
810.00000,0.704559
810.50000, 
811.00000,0.702744
811.50000, 
812.00000,0.700089
812.50000, 
813.00000,0.697342
813.50000, 
814.00000,0.694580
814.50000, 
815.00000,0.691681
815.50000, 
816.00000,0.688263
816.50000, 
817.00000,0.685638
817.50000, 
818.00000,0.681885
818.50000, 
819.00000,0.678360
819.50000, 
820.00000,0.674942
820.50000, 
821.00000,0.671265
821.50000, 
822.00000,0.667267
822.50000, 
823.00000,0.663910
823.50000, 
824.00000,0.659378
824.50000, 
825.00000,0.655243
825.50000, 
826.00000,0.651382
826.50000, 
827.00000,0.646713
827.50000, 
828.00000,0.642105
828.50000, 
829.00000,0.637665
829.50000, 
830.00000,0.632996
830.50000, 
831.00000,0.627640
831.50000, 
832.00000,0.623199
832.50000, 
833.00000,0.617645
833.50000, 
834.00000,0.612473
834.50000, 
835.00000,0.607285
835.50000, 
836.00000,0.601608
836.50000, 
837.00000,0.595657
837.50000, 
838.00000,0.590393
838.50000, 
839.00000,0.584290
839.50000, 
840.00000,0.578659
840.50000, 
841.00000,0.573578
841.50000, 
842.00000,0.567505
842.50000, 
843.00000,0.561615
843.50000, 
844.00000,0.555832
844.50000, 
845.00000,0.550049
845.50000, 
846.00000,0.543716
846.50000, 
847.00000,0.538513
847.50000, 
848.00000,0.532806
848.50000, 
849.00000,0.526672
849.50000, 
850.00000,0.521027
850.50000, 
851.00000,0.515366
851.50000, 
852.00000,0.509384
852.50000, 
853.00000,0.503403
853.50000, 
854.00000,0.497955
854.50000, 
855.00000,0.491486
855.50000, 
856.00000,0.485703
856.50000, 
857.00000,0.480072
857.50000, 
858.00000,0.473831
858.50000, 
859.00000,0.467758
859.50000, 
860.00000,0.462448
860.50000, 
861.00000,0.456848
861.50000, 
862.00000,0.450577
862.50000, 
863.00000,0.445465
863.50000, 
864.00000,0.439758
864.50000, 
865.00000,0.433899
865.50000, 
866.00000,0.428818
866.50000, 
867.00000,0.424057
867.50000, 
868.00000,0.418427
868.50000, 
869.00000,0.413406
869.50000, 
870.00000,0.409042
870.50000, 
871.00000,0.403610
871.50000, 
872.00000,0.398422
872.50000, 
873.00000,0.394119
873.50000, 
874.00000,0.389526
874.50000, 
875.00000,0.384338
875.50000, 
876.00000,0.379837
876.50000, 
877.00000,0.375641
877.50000, 
878.00000,0.370422
878.50000, 
879.00000,0.365982
879.50000, 
880.00000,0.362015
880.50000, 
881.00000,0.357178
881.50000, 
882.00000,0.352493
882.50000, 
883.00000,0.348816
883.50000, 
884.00000,0.344772
884.50000, 
885.00000,0.340195
885.50000, 
886.00000,0.336624
886.50000, 
887.00000,0.333160
887.50000, 
888.00000,0.328705
888.50000, 
889.00000,0.324966
889.50000, 
890.00000,0.322098
890.50000, 
891.00000,0.318451
891.50000, 
892.00000,0.314621
892.50000, 
893.00000,0.311798
893.50000, 
894.00000,0.308777
894.50000, 
895.00000,0.305252
895.50000, 
896.00000,0.301926
896.50000, 
897.00000,0.299469
897.50000, 
898.00000,0.296432
898.50000, 
899.00000,0.292801
899.50000, 
900.00000,0.290710
900.50000, 
901.00000, 
901.50000, 
902.00000, 
902.50000, 
903.00000, 
903.50000, 
904.00000, 
904.50000, 
905.00000, 
905.50000, 
906.00000, 
906.50000, 
907.00000, 
907.50000, 
908.00000, 
908.50000, 
909.00000, 
909.50000, 
910.00000, 
910.50000, 
911.00000, 
911.50000, 
912.00000, 
912.50000, 
913.00000, 
913.50000, 
914.00000, 
914.50000, 
915.00000, 
915.50000, 
916.00000, 
916.50000, 
917.00000, 
917.50000, 
918.00000, 
918.50000, 
919.00000, 
919.50000, 
920.00000, 
920.50000, 
921.00000, 
921.50000, 
922.00000, 
922.50000, 
923.00000, 
923.50000, 
924.00000, 
924.50000, 
925.00000, 
925.50000, 
926.00000, 
926.50000, 
927.00000, 
927.50000, 
928.00000, 
928.50000, 
929.00000, 
929.50000, 
930.00000, 
930.50000, 
931.00000, 
931.50000, 
932.00000, 
932.50000, 
933.00000, 
933.50000, 
934.00000, 
934.50000, 
935.00000, 
935.50000, 
936.00000, 
936.50000, 
937.00000, 
937.50000, 
938.00000, 
938.50000, 
939.00000, 
939.50000, 
940.00000, 
940.50000, 
941.00000, 
941.50000, 
942.00000, 
942.50000, 
943.00000, 
943.50000, 
944.00000, 
944.50000, 
945.00000, 
945.50000, 
946.00000, 
946.50000, 
947.00000, 
947.50000, 
948.00000, 
948.50000, 
949.00000, 
949.50000, 
950.00000, 
950.50000, 
951.00000, 
951.50000, 
952.00000, 
952.50000, 
953.00000, 
953.50000, 
954.00000, 
954.50000, 
955.00000, 
955.50000, 
956.00000, 
956.50000, 
957.00000, 
957.50000, 
958.00000, 
958.50000, 
959.00000, 
959.50000, 
960.00000, 
960.50000, 
961.00000, 
961.50000, 
962.00000, 
962.50000, 
963.00000, 
963.50000, 
964.00000, 
964.50000, 
965.00000, 
965.50000, 
966.00000, 
966.50000, 
967.00000, 
967.50000, 
968.00000, 
968.50000, 
969.00000, 
969.50000, 
970.00000, 
970.50000, 
971.00000, 
971.50000, 
972.00000, 
972.50000, 
973.00000, 
973.50000, 
974.00000, 
974.50000, 
975.00000, 
975.50000, 
976.00000, 
976.50000, 
977.00000, 
977.50000, 
978.00000, 
978.50000, 
979.00000, 
979.50000, 
980.00000, 
980.50000, 
981.00000, 
981.50000, 
982.00000, 
982.50000, 
983.00000, 
983.50000, 
984.00000, 
984.50000, 
985.00000, 
985.50000, 
986.00000, 
986.50000, 
987.00000, 
987.50000, 
988.00000, 
988.50000, 
989.00000, 
989.50000, 
990.00000, 
990.50000, 
991.00000, 
991.50000, 
992.00000, 
992.50000, 
993.00000, 
993.50000, 
994.00000, 
994.50000, 
995.00000, 
995.50000, 
996.00000, 
996.50000, 
997.00000, 
997.50000, 
998.00000, 
998.50000, 
999.00000, 
999.50000, 
1000.00000, 
1000.50000, 
1001.00000, 
1001.50000, 
1002.00000, 
1002.50000, 
1003.00000, 
1003.50000, 
1004.00000, 
1004.50000, 
1005.00000, 
1005.50000, 
1006.00000, 
1006.50000, 
1007.00000, 
1007.50000, 
1008.00000, 
1008.50000, 
1009.00000, 
1009.50000, 
1010.00000, 
1010.50000, 
1011.00000, 
1011.50000, 
1012.00000, 
1012.50000, 
1013.00000, 
1013.50000, 
1014.00000, 
1014.50000, 
1015.00000, 
1015.50000, 
1016.00000, 
1016.50000, 
1017.00000, 
1017.50000, 
1018.00000, 
1018.50000, 
1019.00000, 
1019.50000, 
1020.00000, 
1020.50000, 
1021.00000, 
1021.50000, 
1022.00000, 
1022.50000, 
1023.00000, 
1023.50000, 
1024.00000, 
1024.50000, 
1025.00000, 
1025.50000, 
1026.00000, 
1026.50000, 
1027.00000, 
1027.50000, 
1028.00000, 
1028.50000, 
1029.00000, 
1029.50000, 
1030.00000, 
1030.50000, 
1031.00000, 
1031.50000, 
1032.00000, 
1032.50000, 
1033.00000, 
1033.50000, 
1034.00000, 
1034.50000, 
1035.00000, 
1035.50000, 
1036.00000, 
1036.50000, 
1037.00000, 
1037.50000, 
1038.00000, 
1038.50000, 
1039.00000, 
1039.50000, 
1040.00000, 
1040.50000, 
1041.00000, 
1041.50000, 
1042.00000, 
1042.50000, 
1043.00000, 
1043.50000, 
1044.00000, 
1044.50000, 
1045.00000, 
1045.50000, 
1046.00000, 
1046.50000, 
1047.00000, 
1047.50000, 
1048.00000, 
1048.50000, 
1049.00000, 
1049.50000, 
1050.00000, 
1050.50000, 
1051.00000, 
1051.50000, 
1052.00000, 
1052.50000, 
1053.00000, 
1053.50000, 
1054.00000, 
1054.50000, 
1055.00000, 
1055.50000, 
1056.00000, 
1056.50000, 
1057.00000, 
1057.50000, 
1058.00000, 
1058.50000, 
1059.00000, 
1059.50000, 
1060.00000, 
1060.50000, 
1061.00000, 
1061.50000, 
1062.00000, 
1062.50000, 
1063.00000, 
1063.50000, 
1064.00000, 
1064.50000, 
1065.00000, 
1065.50000, 
1066.00000, 
1066.50000, 
1067.00000, 
1067.50000, 
1068.00000, 
1068.50000, 
1069.00000, 
1069.50000, 
1070.00000, 
1070.50000, 
1071.00000, 
1071.50000, 
1072.00000, 
1072.50000, 
1073.00000, 
1073.50000, 
1074.00000, 
1074.50000, 
1075.00000, 
1075.50000, 
1076.00000, 
1076.50000, 
1077.00000, 
1077.50000, 
1078.00000, 
1078.50000, 
1079.00000, 
1079.50000, 
1080.00000, 
1080.50000, 
1081.00000, 
1081.50000, 
1082.00000, 
1082.50000, 
1083.00000, 
1083.50000, 
1084.00000, 
1084.50000, 
1085.00000, 
1085.50000, 
1086.00000, 
1086.50000, 
1087.00000, 
1087.50000, 
1088.00000, 
1088.50000, 
1089.00000, 
1089.50000, 
1090.00000, 
1090.50000, 
1091.00000, 
1091.50000, 
1092.00000, 
1092.50000, 
1093.00000, 
1093.50000, 
1094.00000, 
1094.50000, 
1095.00000, 
1095.50000, 
1096.00000, 
1096.50000, 
1097.00000, 
1097.50000, 
1098.00000, 
1098.50000, 
1099.00000, 
1099.50000, 
1100.00000, 
