"40% - RawData"
"Wavelength nm.","Abs."
300.00000,-0.000351
300.50000, 
301.00000,-0.000351
301.50000, 
302.00000,-0.000275
302.50000, 
303.00000,-0.000275
303.50000, 
304.00000,-0.000275
304.50000, 
305.00000,-0.000290
305.50000, 
306.00000,-0.000259
306.50000, 
307.00000,-0.000031
307.50000, 
308.00000,-0.000351
308.50000, 
309.00000,-0.000259
309.50000, 
310.00000,-0.000198
310.50000, 
311.00000,-0.000320
311.50000, 
312.00000,-0.000305
312.50000, 
313.00000,-0.000259
313.50000, 
314.00000,-0.000275
314.50000, 
315.00000,-0.000244
315.50000, 
316.00000,-0.000183
316.50000, 
317.00000,-0.000305
317.50000, 
318.00000,-0.000244
318.50000, 
319.00000,-0.000305
319.50000, 
320.00000,-0.000366
320.50000, 
321.00000,-0.000198
321.50000, 
322.00000,-0.000122
322.50000, 
323.00000,-0.000351
323.50000, 
324.00000,-0.000259
324.50000, 
325.00000,-0.000290
325.50000, 
326.00000,-0.000183
326.50000, 
327.00000,-0.000275
327.50000, 
328.00000,-0.000214
328.50000, 
329.00000,-0.000412
329.50000, 
330.00000,-0.000427
330.50000, 
331.00000,-0.000275
331.50000, 
332.00000,-0.000397
332.50000, 
333.00000,-0.000290
333.50000, 
334.00000,-0.000275
334.50000, 
335.00000,-0.000031
335.50000, 
336.00000,0.015732
336.50000, 
337.00000,0.450317
337.50000, 
338.00000,0.604507
338.50000, 
339.00000,0.601440
339.50000, 
340.00000,0.596741
340.50000, 
341.00000,0.592728
341.50000, 
342.00000,0.587860
342.50000, 
343.00000,0.582321
343.50000, 
344.00000,0.578323
344.50000, 
345.00000,0.572418
345.50000, 
346.00000,0.567612
346.50000, 
347.00000,0.562347
347.50000, 
348.00000,0.557755
348.50000, 
349.00000,0.551910
349.50000, 
350.00000,0.546951
350.50000, 
351.00000,0.541718
351.50000, 
352.00000,0.537033
352.50000, 
353.00000,0.531433
353.50000, 
354.00000,0.526428
354.50000, 
355.00000,0.521423
355.50000, 
356.00000,0.516907
356.50000, 
357.00000,0.512329
357.50000, 
358.00000,0.508667
358.50000, 
359.00000,0.504822
359.50000, 
360.00000,0.500839
360.50000, 
361.00000,0.497177
361.50000, 
362.00000,0.494064
362.50000, 
363.00000,0.491104
363.50000, 
364.00000,0.487885
364.50000, 
365.00000,0.485352
365.50000, 
366.00000,0.482666
366.50000, 
367.00000,0.479858
367.50000, 
368.00000,0.477478
368.50000, 
369.00000,0.475204
369.50000, 
370.00000,0.472809
370.50000, 
371.00000,0.470200
371.50000, 
372.00000,0.467712
372.50000, 
373.00000,0.465668
373.50000, 
374.00000,0.463562
374.50000, 
375.00000,0.461212
375.50000, 
376.00000,0.458954
376.50000, 
377.00000,0.456970
377.50000, 
378.00000,0.454880
378.50000, 
379.00000,0.452896
379.50000, 
380.00000,0.451248
380.50000, 
381.00000,0.449860
381.50000, 
382.00000,0.448502
382.50000, 
383.00000,0.446945
383.50000, 
384.00000,0.445740
384.50000, 
385.00000,0.444077
385.50000, 
386.00000,0.443039
386.50000, 
387.00000,0.442276
387.50000, 
388.00000,0.441086
388.50000, 
389.00000,0.440140
389.50000, 
390.00000,0.439270
390.50000, 
391.00000,0.438461
391.50000, 
392.00000,0.437958
392.50000, 
393.00000,0.437485
393.50000, 
394.00000,0.436996
394.50000, 
395.00000,0.436691
395.50000, 
396.00000,0.436523
396.50000, 
397.00000,0.436401
397.50000, 
398.00000,0.436157
398.50000, 
399.00000,0.436005
399.50000, 
400.00000,0.436035
400.50000, 
401.00000,0.435715
401.50000, 
402.00000,0.435577
402.50000, 
403.00000,0.435440
403.50000, 
404.00000,0.435455
404.50000, 
405.00000,0.435440
405.50000, 
406.00000,0.435638
406.50000, 
407.00000,0.436050
407.50000, 
408.00000,0.436249
408.50000, 
409.00000,0.436569
409.50000, 
410.00000,0.436905
410.50000, 
411.00000,0.437347
411.50000, 
412.00000,0.437653
412.50000, 
413.00000,0.438202
413.50000, 
414.00000,0.438583
414.50000, 
415.00000,0.438934
415.50000, 
416.00000,0.439301
416.50000, 
417.00000,0.439941
417.50000, 
418.00000,0.440353
418.50000, 
419.00000,0.440720
419.50000, 
420.00000,0.441254
420.50000, 
421.00000,0.441757
421.50000, 
422.00000,0.442352
422.50000, 
423.00000,0.442932
423.50000, 
424.00000,0.443619
424.50000, 
425.00000,0.444412
425.50000, 
426.00000,0.445145
426.50000, 
427.00000,0.446091
427.50000, 
428.00000,0.447174
428.50000, 
429.00000,0.448380
429.50000, 
430.00000,0.449646
430.50000, 
431.00000,0.451126
431.50000, 
432.00000,0.452530
432.50000, 
433.00000,0.453964
433.50000, 
434.00000,0.455368
434.50000, 
435.00000,0.456696
435.50000, 
436.00000,0.457886
436.50000, 
437.00000,0.459076
437.50000, 
438.00000,0.460297
438.50000, 
439.00000,0.461441
439.50000, 
440.00000,0.462494
440.50000, 
441.00000,0.463623
441.50000, 
442.00000,0.464752
442.50000, 
443.00000,0.465881
443.50000, 
444.00000,0.467163
444.50000, 
445.00000,0.468567
445.50000, 
446.00000,0.469818
446.50000, 
447.00000,0.471069
447.50000, 
448.00000,0.472458
448.50000, 
449.00000,0.473907
449.50000, 
450.00000,0.475189
450.50000, 
451.00000,0.476608
451.50000, 
452.00000,0.478241
452.50000, 
453.00000,0.479660
453.50000, 
454.00000,0.481400
454.50000, 
455.00000,0.483002
455.50000, 
456.00000,0.484634
456.50000, 
457.00000,0.486404
457.50000, 
458.00000,0.488144
458.50000, 
459.00000,0.489868
459.50000, 
460.00000,0.491577
460.50000, 
461.00000,0.493423
461.50000, 
462.00000,0.495148
462.50000, 
463.00000,0.496933
463.50000, 
464.00000,0.498886
464.50000, 
465.00000,0.500641
465.50000, 
466.00000,0.502548
466.50000, 
467.00000,0.504395
467.50000, 
468.00000,0.506332
468.50000, 
469.00000,0.508072
469.50000, 
470.00000,0.509888
470.50000, 
471.00000,0.511642
471.50000, 
472.00000,0.513336
472.50000, 
473.00000,0.514755
473.50000, 
474.00000,0.516617
474.50000, 
475.00000,0.518661
475.50000, 
476.00000,0.520813
476.50000, 
477.00000,0.523117
477.50000, 
478.00000,0.525574
478.50000, 
479.00000,0.528030
479.50000, 
480.00000,0.530518
480.50000, 
481.00000,0.533127
481.50000, 
482.00000,0.535736
482.50000, 
483.00000,0.538483
483.50000, 
484.00000,0.541412
484.50000, 
485.00000,0.544403
485.50000, 
486.00000,0.547485
486.50000, 
487.00000,0.550491
487.50000, 
488.00000,0.553421
488.50000, 
489.00000,0.556122
489.50000, 
490.00000,0.558777
490.50000, 
491.00000,0.561188
491.50000, 
492.00000,0.563416
492.50000, 
493.00000,0.565430
493.50000, 
494.00000,0.567184
494.50000, 
495.00000,0.568771
495.50000, 
496.00000,0.570221
496.50000, 
497.00000,0.571594
497.50000, 
498.00000,0.572876
498.50000, 
499.00000,0.574005
499.50000, 
500.00000,0.575058
500.50000, 
501.00000,0.576279
501.50000, 
502.00000,0.577454
502.50000, 
503.00000,0.578644
503.50000, 
504.00000,0.579712
504.50000, 
505.00000,0.580826
505.50000, 
506.00000,0.581909
506.50000, 
507.00000,0.582962
507.50000, 
508.00000,0.584030
508.50000, 
509.00000,0.585052
509.50000, 
510.00000,0.585907
510.50000, 
511.00000,0.586685
511.50000, 
512.00000,0.587448
512.50000, 
513.00000,0.588150
513.50000, 
514.00000,0.588699
514.50000, 
515.00000,0.589127
515.50000, 
516.00000,0.589432
516.50000, 
517.00000,0.589615
517.50000, 
518.00000,0.589722
518.50000, 
519.00000,0.589691
519.50000, 
520.00000,0.589478
520.50000, 
521.00000,0.589203
521.50000, 
522.00000,0.588791
522.50000, 
523.00000,0.588318
523.50000, 
524.00000,0.587708
524.50000, 
525.00000,0.587036
525.50000, 
526.00000,0.586273
526.50000, 
527.00000,0.585388
527.50000, 
528.00000,0.584549
528.50000, 
529.00000,0.583740
529.50000, 
530.00000,0.582870
530.50000, 
531.00000,0.582047
531.50000, 
532.00000,0.581207
532.50000, 
533.00000,0.580322
533.50000, 
534.00000,0.579590
534.50000, 
535.00000,0.578934
535.50000, 
536.00000,0.578247
536.50000, 
537.00000,0.577438
537.50000, 
538.00000,0.577042
538.50000, 
539.00000,0.576752
539.50000, 
540.00000,0.576538
540.50000, 
541.00000,0.576309
541.50000, 
542.00000,0.576218
542.50000, 
543.00000,0.576187
543.50000, 
544.00000,0.576233
544.50000, 
545.00000,0.576279
545.50000, 
546.00000,0.576309
546.50000, 
547.00000,0.576370
547.50000, 
548.00000,0.576370
548.50000, 
549.00000,0.576355
549.50000, 
550.00000,0.576218
550.50000, 
551.00000,0.576050
551.50000, 
552.00000,0.575745
552.50000, 
553.00000,0.575287
553.50000, 
554.00000,0.574600
554.50000, 
555.00000,0.573730
555.50000, 
556.00000,0.572708
556.50000, 
557.00000,0.571365
557.50000, 
558.00000,0.569824
558.50000, 
559.00000,0.567947
559.50000, 
560.00000,0.566025
560.50000, 
561.00000,0.563736
561.50000, 
562.00000,0.561295
562.50000, 
563.00000,0.558685
563.50000, 
564.00000,0.555801
564.50000, 
565.00000,0.552658
565.50000, 
566.00000,0.549362
566.50000, 
567.00000,0.545929
567.50000, 
568.00000,0.542419
568.50000, 
569.00000,0.538757
569.50000, 
570.00000,0.534958
570.50000, 
571.00000,0.531113
571.50000, 
572.00000,0.527298
572.50000, 
573.00000,0.523438
573.50000, 
574.00000,0.519577
574.50000, 
575.00000,0.515488
575.50000, 
576.00000,0.511505
576.50000, 
577.00000,0.507660
577.50000, 
578.00000,0.504013
578.50000, 
579.00000,0.500427
579.50000, 
580.00000,0.497162
580.50000, 
581.00000,0.494034
581.50000, 
582.00000,0.491150
582.50000, 
583.00000,0.488510
583.50000, 
584.00000,0.485992
584.50000, 
585.00000,0.483734
585.50000, 
586.00000,0.481750
586.50000, 
587.00000,0.480072
587.50000, 
588.00000,0.478500
588.50000, 
589.00000,0.477264
589.50000, 
590.00000,0.476242
590.50000, 
591.00000,0.475403
591.50000, 
592.00000,0.474716
592.50000, 
593.00000,0.474106
593.50000, 
594.00000,0.473679
594.50000, 
595.00000,0.473160
595.50000, 
596.00000,0.472916
596.50000, 
597.00000,0.472626
597.50000, 
598.00000,0.472336
598.50000, 
599.00000,0.471893
599.50000, 
600.00000,0.471451
600.50000, 
601.00000,0.470932
601.50000, 
602.00000,0.470215
602.50000, 
603.00000,0.469193
603.50000, 
604.00000,0.468033
604.50000, 
605.00000,0.466599
605.50000, 
606.00000,0.464813
606.50000, 
607.00000,0.462692
607.50000, 
608.00000,0.460388
608.50000, 
609.00000,0.457672
609.50000, 
610.00000,0.454651
610.50000, 
611.00000,0.451309
611.50000, 
612.00000,0.447571
612.50000, 
613.00000,0.443588
613.50000, 
614.00000,0.439209
614.50000, 
615.00000,0.434753
615.50000, 
616.00000,0.430023
616.50000, 
617.00000,0.424973
617.50000, 
618.00000,0.419617
618.50000, 
619.00000,0.413986
619.50000, 
620.00000,0.408356
620.50000, 
621.00000,0.402588
621.50000, 
622.00000,0.396713
622.50000, 
623.00000,0.390656
623.50000, 
624.00000,0.384399
624.50000, 
625.00000,0.378204
625.50000, 
626.00000,0.371994
626.50000, 
627.00000,0.365799
627.50000, 
628.00000,0.359665
628.50000, 
629.00000,0.353699
629.50000, 
630.00000,0.347961
630.50000, 
631.00000,0.342361
631.50000, 
632.00000,0.336838
632.50000, 
633.00000,0.331619
633.50000, 
634.00000,0.326523
634.50000, 
635.00000,0.321594
635.50000, 
636.00000,0.317444
636.50000, 
637.00000,0.313492
637.50000, 
638.00000,0.309860
638.50000, 
639.00000,0.306396
639.50000, 
640.00000,0.303177
640.50000, 
641.00000,0.300186
641.50000, 
642.00000,0.297440
642.50000, 
643.00000,0.294800
643.50000, 
644.00000,0.292160
644.50000, 
645.00000,0.289490
645.50000, 
646.00000,0.286972
646.50000, 
647.00000,0.284424
647.50000, 
648.00000,0.282089
648.50000, 
649.00000,0.279709
649.50000, 
650.00000,0.277557
650.50000, 
651.00000,0.275528
651.50000, 
652.00000,0.273560
652.50000, 
653.00000,0.271667
653.50000, 
654.00000,0.269928
654.50000, 
655.00000,0.268311
655.50000, 
656.00000,0.266800
656.50000, 
657.00000,0.265457
657.50000, 
658.00000,0.264130
658.50000, 
659.00000,0.262955
659.50000, 
660.00000,0.261810
660.50000, 
661.00000,0.260620
661.50000, 
662.00000,0.259644
662.50000, 
663.00000,0.258698
663.50000, 
664.00000,0.257751
664.50000, 
665.00000,0.256805
665.50000, 
666.00000,0.255951
666.50000, 
667.00000,0.255249
667.50000, 
668.00000,0.254456
668.50000, 
669.00000,0.253754
669.50000, 
670.00000,0.253067
670.50000, 
671.00000,0.252380
671.50000, 
672.00000,0.251663
672.50000, 
673.00000,0.251038
673.50000, 
674.00000,0.250381
674.50000, 
675.00000,0.249771
675.50000, 
676.00000,0.249222
676.50000, 
677.00000,0.248688
677.50000, 
678.00000,0.248199
678.50000, 
679.00000,0.247681
679.50000, 
680.00000,0.247177
680.50000, 
681.00000,0.246689
681.50000, 
682.00000,0.246185
682.50000, 
683.00000,0.245758
683.50000, 
684.00000,0.245270
684.50000, 
685.00000,0.244904
685.50000, 
686.00000,0.244492
686.50000, 
687.00000,0.244064
687.50000, 
688.00000,0.243713
688.50000, 
689.00000,0.243362
689.50000, 
690.00000,0.242981
690.50000, 
691.00000,0.242630
691.50000, 
692.00000,0.242279
692.50000, 
693.00000,0.241898
693.50000, 
694.00000,0.241547
694.50000, 
695.00000,0.241257
695.50000, 
696.00000,0.241013
696.50000, 
697.00000,0.240677
697.50000, 
698.00000,0.240356
698.50000, 
699.00000,0.240067
699.50000, 
700.00000,0.239746
700.50000, 
701.00000,0.239395
701.50000, 
702.00000,0.239151
702.50000, 
703.00000,0.238861
703.50000, 
704.00000,0.238632
704.50000, 
705.00000,0.238403
705.50000, 
706.00000,0.238129
706.50000, 
707.00000,0.237793
707.50000, 
708.00000,0.237457
708.50000, 
709.00000,0.237213
709.50000, 
710.00000,0.237045
710.50000, 
711.00000,0.236694
711.50000, 
712.00000,0.236313
712.50000, 
713.00000,0.236023
713.50000, 
714.00000,0.235748
714.50000, 
715.00000,0.235352
715.50000, 
716.00000,0.235062
716.50000, 
717.00000,0.234772
717.50000, 
718.00000,0.234360
718.50000, 
719.00000,0.234024
719.50000, 
720.00000,0.233688
720.50000, 
721.00000,0.233353
721.50000, 
722.00000,0.232956
722.50000, 
723.00000,0.232681
723.50000, 
724.00000,0.232391
724.50000, 
725.00000,0.232040
725.50000, 
726.00000,0.231766
726.50000, 
727.00000,0.231430
727.50000, 
728.00000,0.231140
728.50000, 
729.00000,0.230835
729.50000, 
730.00000,0.230499
730.50000, 
731.00000,0.230225
731.50000, 
732.00000,0.229965
732.50000, 
733.00000,0.229752
733.50000, 
734.00000,0.229523
734.50000, 
735.00000,0.229233
735.50000, 
736.00000,0.229019
736.50000, 
737.00000,0.228745
737.50000, 
738.00000,0.228455
738.50000, 
739.00000,0.228287
739.50000, 
740.00000,0.228104
740.50000, 
741.00000,0.227814
741.50000, 
742.00000,0.227539
742.50000, 
743.00000,0.227295
743.50000, 
744.00000,0.227158
744.50000, 
745.00000,0.226868
745.50000, 
746.00000,0.226532
746.50000, 
747.00000,0.226181
747.50000, 
748.00000,0.225952
748.50000, 
749.00000,0.225723
749.50000, 
750.00000,0.225479
750.50000, 
751.00000,0.225235
751.50000, 
752.00000,0.225021
752.50000, 
753.00000,0.224777
753.50000, 
754.00000,0.224579
754.50000, 
755.00000,0.224335
755.50000, 
756.00000,0.224152
756.50000, 
757.00000,0.223862
757.50000, 
758.00000,0.223602
758.50000, 
759.00000,0.223450
759.50000, 
760.00000,0.223221
760.50000, 
761.00000,0.222931
761.50000, 
762.00000,0.222717
762.50000, 
763.00000,0.222488
763.50000, 
764.00000,0.222229
764.50000, 
765.00000,0.222061
765.50000, 
766.00000,0.221924
766.50000, 
767.00000,0.221649
767.50000, 
768.00000,0.221359
768.50000, 
769.00000,0.221268
769.50000, 
770.00000,0.221100
770.50000, 
771.00000,0.220886
771.50000, 
772.00000,0.220657
772.50000, 
773.00000,0.220428
773.50000, 
774.00000,0.220261
774.50000, 
775.00000,0.220078
775.50000, 
776.00000,0.219849
776.50000, 
777.00000,0.219681
777.50000, 
778.00000,0.219482
778.50000, 
779.00000,0.219269
779.50000, 
780.00000,0.219055
780.50000, 
781.00000,0.218887
781.50000, 
782.00000,0.218719
782.50000, 
783.00000,0.218521
783.50000, 
784.00000,0.218399
784.50000, 
785.00000,0.218155
785.50000, 
786.00000,0.217911
786.50000, 
787.00000,0.217789
787.50000, 
788.00000,0.217621
788.50000, 
789.00000,0.217377
789.50000, 
790.00000,0.217209
790.50000, 
791.00000,0.217072
791.50000, 
792.00000,0.216934
792.50000, 
793.00000,0.216721
793.50000, 
794.00000,0.216476
794.50000, 
795.00000,0.216309
795.50000, 
796.00000,0.216141
796.50000, 
797.00000,0.215927
797.50000, 
798.00000,0.215775
798.50000, 
799.00000,0.215561
799.50000, 
800.00000,0.215378
800.50000, 
801.00000,0.215240
801.50000, 
802.00000,0.215103
802.50000, 
803.00000,0.214874
803.50000, 
804.00000,0.214767
804.50000, 
805.00000,0.214737
805.50000, 
806.00000,0.214539
806.50000, 
807.00000,0.214218
807.50000, 
808.00000,0.214020
808.50000, 
809.00000,0.213928
809.50000, 
810.00000,0.213760
810.50000, 
811.00000,0.213745
811.50000, 
812.00000,0.213562
812.50000, 
813.00000,0.213287
813.50000, 
814.00000,0.213089
814.50000, 
815.00000,0.212921
815.50000, 
816.00000,0.212738
816.50000, 
817.00000,0.212662
817.50000, 
818.00000,0.212463
818.50000, 
819.00000,0.212204
819.50000, 
820.00000,0.211975
820.50000, 
821.00000,0.211884
821.50000, 
822.00000,0.211685
822.50000, 
823.00000,0.211716
823.50000, 
824.00000,0.211456
824.50000, 
825.00000,0.211349
825.50000, 
826.00000,0.211212
826.50000, 
827.00000,0.210999
827.50000, 
828.00000,0.210938
828.50000, 
829.00000,0.210709
829.50000, 
830.00000,0.210587
830.50000, 
831.00000,0.210480
831.50000, 
832.00000,0.210403
832.50000, 
833.00000,0.210068
833.50000, 
834.00000,0.210052
834.50000, 
835.00000,0.209869
835.50000, 
836.00000,0.209763
836.50000, 
837.00000,0.209625
837.50000, 
838.00000,0.209396
838.50000, 
839.00000,0.209244
839.50000, 
840.00000,0.209167
840.50000, 
841.00000,0.209076
841.50000, 
842.00000,0.208878
842.50000, 
843.00000,0.208755
843.50000, 
844.00000,0.208618
844.50000, 
845.00000,0.208511
845.50000, 
846.00000,0.208405
846.50000, 
847.00000,0.208252
847.50000, 
848.00000,0.208115
848.50000, 
849.00000,0.208038
849.50000, 
850.00000,0.207840
850.50000, 
851.00000,0.207703
851.50000, 
852.00000,0.207626
852.50000, 
853.00000,0.207474
853.50000, 
854.00000,0.207336
854.50000, 
855.00000,0.207199
855.50000, 
856.00000,0.207123
856.50000, 
857.00000,0.206970
857.50000, 
858.00000,0.206802
858.50000, 
859.00000,0.206680
859.50000, 
860.00000,0.206558
860.50000, 
861.00000,0.206421
861.50000, 
862.00000,0.206299
862.50000, 
863.00000,0.206131
863.50000, 
864.00000,0.205948
864.50000, 
865.00000,0.205841
865.50000, 
866.00000,0.205704
866.50000, 
867.00000,0.205658
867.50000, 
868.00000,0.205490
868.50000, 
869.00000,0.205338
869.50000, 
870.00000,0.205231
870.50000, 
871.00000,0.205185
871.50000, 
872.00000,0.205078
872.50000, 
873.00000,0.205017
873.50000, 
874.00000,0.204880
874.50000, 
875.00000,0.204803
875.50000, 
876.00000,0.204697
876.50000, 
877.00000,0.204559
877.50000, 
878.00000,0.204483
878.50000, 
879.00000,0.204437
879.50000, 
880.00000,0.204346
880.50000, 
881.00000,0.204147
881.50000, 
882.00000,0.204041
882.50000, 
883.00000,0.203918
883.50000, 
884.00000,0.203781
884.50000, 
885.00000,0.203659
885.50000, 
886.00000,0.203522
886.50000, 
887.00000,0.203430
887.50000, 
888.00000,0.203339
888.50000, 
889.00000,0.203247
889.50000, 
890.00000,0.203110
890.50000, 
891.00000,0.203049
891.50000, 
892.00000,0.203003
892.50000, 
893.00000,0.203018
893.50000, 
894.00000,0.202927
894.50000, 
895.00000,0.202927
895.50000, 
896.00000,0.202896
896.50000, 
897.00000,0.202881
897.50000, 
898.00000,0.202850
898.50000, 
899.00000,0.202820
899.50000, 
900.00000,0.202881
900.50000, 
901.00000, 
901.50000, 
902.00000, 
902.50000, 
903.00000, 
903.50000, 
904.00000, 
904.50000, 
905.00000, 
905.50000, 
906.00000, 
906.50000, 
907.00000, 
907.50000, 
908.00000, 
908.50000, 
909.00000, 
909.50000, 
910.00000, 
910.50000, 
911.00000, 
911.50000, 
912.00000, 
912.50000, 
913.00000, 
913.50000, 
914.00000, 
914.50000, 
915.00000, 
915.50000, 
916.00000, 
916.50000, 
917.00000, 
917.50000, 
918.00000, 
918.50000, 
919.00000, 
919.50000, 
920.00000, 
920.50000, 
921.00000, 
921.50000, 
922.00000, 
922.50000, 
923.00000, 
923.50000, 
924.00000, 
924.50000, 
925.00000, 
925.50000, 
926.00000, 
926.50000, 
927.00000, 
927.50000, 
928.00000, 
928.50000, 
929.00000, 
929.50000, 
930.00000, 
930.50000, 
931.00000, 
931.50000, 
932.00000, 
932.50000, 
933.00000, 
933.50000, 
934.00000, 
934.50000, 
935.00000, 
935.50000, 
936.00000, 
936.50000, 
937.00000, 
937.50000, 
938.00000, 
938.50000, 
939.00000, 
939.50000, 
940.00000, 
940.50000, 
941.00000, 
941.50000, 
942.00000, 
942.50000, 
943.00000, 
943.50000, 
944.00000, 
944.50000, 
945.00000, 
945.50000, 
946.00000, 
946.50000, 
947.00000, 
947.50000, 
948.00000, 
948.50000, 
949.00000, 
949.50000, 
950.00000, 
950.50000, 
951.00000, 
951.50000, 
952.00000, 
952.50000, 
953.00000, 
953.50000, 
954.00000, 
954.50000, 
955.00000, 
955.50000, 
956.00000, 
956.50000, 
957.00000, 
957.50000, 
958.00000, 
958.50000, 
959.00000, 
959.50000, 
960.00000, 
960.50000, 
961.00000, 
961.50000, 
962.00000, 
962.50000, 
963.00000, 
963.50000, 
964.00000, 
964.50000, 
965.00000, 
965.50000, 
966.00000, 
966.50000, 
967.00000, 
967.50000, 
968.00000, 
968.50000, 
969.00000, 
969.50000, 
970.00000, 
970.50000, 
971.00000, 
971.50000, 
972.00000, 
972.50000, 
973.00000, 
973.50000, 
974.00000, 
974.50000, 
975.00000, 
975.50000, 
976.00000, 
976.50000, 
977.00000, 
977.50000, 
978.00000, 
978.50000, 
979.00000, 
979.50000, 
980.00000, 
980.50000, 
981.00000, 
981.50000, 
982.00000, 
982.50000, 
983.00000, 
983.50000, 
984.00000, 
984.50000, 
985.00000, 
985.50000, 
986.00000, 
986.50000, 
987.00000, 
987.50000, 
988.00000, 
988.50000, 
989.00000, 
989.50000, 
990.00000, 
990.50000, 
991.00000, 
991.50000, 
992.00000, 
992.50000, 
993.00000, 
993.50000, 
994.00000, 
994.50000, 
995.00000, 
995.50000, 
996.00000, 
996.50000, 
997.00000, 
997.50000, 
998.00000, 
998.50000, 
999.00000, 
999.50000, 
1000.00000, 
1000.50000, 
1001.00000, 
1001.50000, 
1002.00000, 
1002.50000, 
1003.00000, 
1003.50000, 
1004.00000, 
1004.50000, 
1005.00000, 
1005.50000, 
1006.00000, 
1006.50000, 
1007.00000, 
1007.50000, 
1008.00000, 
1008.50000, 
1009.00000, 
1009.50000, 
1010.00000, 
1010.50000, 
1011.00000, 
1011.50000, 
1012.00000, 
1012.50000, 
1013.00000, 
1013.50000, 
1014.00000, 
1014.50000, 
1015.00000, 
1015.50000, 
1016.00000, 
1016.50000, 
1017.00000, 
1017.50000, 
1018.00000, 
1018.50000, 
1019.00000, 
1019.50000, 
1020.00000, 
1020.50000, 
1021.00000, 
1021.50000, 
1022.00000, 
1022.50000, 
1023.00000, 
1023.50000, 
1024.00000, 
1024.50000, 
1025.00000, 
1025.50000, 
1026.00000, 
1026.50000, 
1027.00000, 
1027.50000, 
1028.00000, 
1028.50000, 
1029.00000, 
1029.50000, 
1030.00000, 
1030.50000, 
1031.00000, 
1031.50000, 
1032.00000, 
1032.50000, 
1033.00000, 
1033.50000, 
1034.00000, 
1034.50000, 
1035.00000, 
1035.50000, 
1036.00000, 
1036.50000, 
1037.00000, 
1037.50000, 
1038.00000, 
1038.50000, 
1039.00000, 
1039.50000, 
1040.00000, 
1040.50000, 
1041.00000, 
1041.50000, 
1042.00000, 
1042.50000, 
1043.00000, 
1043.50000, 
1044.00000, 
1044.50000, 
1045.00000, 
1045.50000, 
1046.00000, 
1046.50000, 
1047.00000, 
1047.50000, 
1048.00000, 
1048.50000, 
1049.00000, 
1049.50000, 
1050.00000, 
1050.50000, 
1051.00000, 
1051.50000, 
1052.00000, 
1052.50000, 
1053.00000, 
1053.50000, 
1054.00000, 
1054.50000, 
1055.00000, 
1055.50000, 
1056.00000, 
1056.50000, 
1057.00000, 
1057.50000, 
1058.00000, 
1058.50000, 
1059.00000, 
1059.50000, 
1060.00000, 
1060.50000, 
1061.00000, 
1061.50000, 
1062.00000, 
1062.50000, 
1063.00000, 
1063.50000, 
1064.00000, 
1064.50000, 
1065.00000, 
1065.50000, 
1066.00000, 
1066.50000, 
1067.00000, 
1067.50000, 
1068.00000, 
1068.50000, 
1069.00000, 
1069.50000, 
1070.00000, 
1070.50000, 
1071.00000, 
1071.50000, 
1072.00000, 
1072.50000, 
1073.00000, 
1073.50000, 
1074.00000, 
1074.50000, 
1075.00000, 
1075.50000, 
1076.00000, 
1076.50000, 
1077.00000, 
1077.50000, 
1078.00000, 
1078.50000, 
1079.00000, 
1079.50000, 
1080.00000, 
1080.50000, 
1081.00000, 
1081.50000, 
1082.00000, 
1082.50000, 
1083.00000, 
1083.50000, 
1084.00000, 
1084.50000, 
1085.00000, 
1085.50000, 
1086.00000, 
1086.50000, 
1087.00000, 
1087.50000, 
1088.00000, 
1088.50000, 
1089.00000, 
1089.50000, 
1090.00000, 
1090.50000, 
1091.00000, 
1091.50000, 
1092.00000, 
1092.50000, 
1093.00000, 
1093.50000, 
1094.00000, 
1094.50000, 
1095.00000, 
1095.50000, 
1096.00000, 
1096.50000, 
1097.00000, 
1097.50000, 
1098.00000, 
1098.50000, 
1099.00000, 
1099.50000, 
1100.00000, 
