"20%V2 - RawData"
"Wavelength nm.","Abs."
300.00000,4.000000
300.50000, 
301.00000,4.000000
301.50000, 
302.00000,3.988510
302.50000, 
303.00000,4.000000
303.50000, 
304.00000,3.984039
304.50000, 
305.00000,3.996384
305.50000, 
306.00000,4.000000
306.50000, 
307.00000,4.000000
307.50000, 
308.00000,4.000000
308.50000, 
309.00000,4.000000
309.50000, 
310.00000,4.000000
310.50000, 
311.00000,4.000000
311.50000, 
312.00000,4.000000
312.50000, 
313.00000,3.924255
313.50000, 
314.00000,3.959946
314.50000, 
315.00000,4.000000
315.50000, 
316.00000,4.000000
316.50000, 
317.00000,3.985092
317.50000, 
318.00000,3.988617
318.50000, 
319.00000,3.969467
319.50000, 
320.00000,4.000000
320.50000, 
321.00000,3.977188
321.50000, 
322.00000,4.000000
322.50000, 
323.00000,3.960434
323.50000, 
324.00000,3.985992
324.50000, 
325.00000,4.000000
325.50000, 
326.00000,4.000000
326.50000, 
327.00000,4.000000
327.50000, 
328.00000,4.000000
328.50000, 
329.00000,4.000000
329.50000, 
330.00000,3.993484
330.50000, 
331.00000,3.974014
331.50000, 
332.00000,4.000000
332.50000, 
333.00000,4.000000
333.50000, 
334.00000,3.952988
334.50000, 
335.00000,3.987122
335.50000, 
336.00000,4.000000
336.50000, 
337.00000,4.000000
337.50000, 
338.00000,4.000000
338.50000, 
339.00000,4.000000
339.50000, 
340.00000,4.000000
340.50000, 
341.00000,4.000000
341.50000, 
342.00000,4.000000
342.50000, 
343.00000,3.985489
343.50000, 
344.00000,3.960434
344.50000, 
345.00000,4.000000
345.50000, 
346.00000,4.000000
346.50000, 
347.00000,3.982727
347.50000, 
348.00000,4.000000
348.50000, 
349.00000,3.976501
349.50000, 
350.00000,4.000000
350.50000, 
351.00000,4.000000
351.50000, 
352.00000,4.000000
352.50000, 
353.00000,4.000000
353.50000, 
354.00000,3.980835
354.50000, 
355.00000,3.984909
355.50000, 
356.00000,4.000000
356.50000, 
357.00000,4.000000
357.50000, 
358.00000,3.985275
358.50000, 
359.00000,3.972885
359.50000, 
360.00000,3.972748
360.50000, 
361.00000,4.000000
361.50000, 
362.00000,4.000000
362.50000, 
363.00000,3.966492
363.50000, 
364.00000,3.972198
364.50000, 
365.00000,3.956558
365.50000, 
366.00000,4.000000
366.50000, 
367.00000,4.000000
367.50000, 
368.00000,3.964111
368.50000, 
369.00000,3.999985
369.50000, 
370.00000,4.000000
370.50000, 
371.00000,4.000000
371.50000, 
372.00000,4.000000
372.50000, 
373.00000,3.940796
373.50000, 
374.00000,3.985397
374.50000, 
375.00000,3.970276
375.50000, 
376.00000,3.976654
376.50000, 
377.00000,3.994308
377.50000, 
378.00000,4.000000
378.50000, 
379.00000,3.960907
379.50000, 
380.00000,4.000000
380.50000, 
381.00000,3.809799
381.50000, 
382.00000,3.888306
382.50000, 
383.00000,3.544266
383.50000, 
384.00000,3.277649
384.50000, 
385.00000,2.959152
385.50000, 
386.00000,2.684067
386.50000, 
387.00000,2.503845
387.50000, 
388.00000,2.321838
388.50000, 
389.00000,2.172485
389.50000, 
390.00000,2.035736
390.50000, 
391.00000,1.914276
391.50000, 
392.00000,1.812286
392.50000, 
393.00000,1.722733
393.50000, 
394.00000,1.641205
394.50000, 
395.00000,1.574448
395.50000, 
396.00000,1.515991
396.50000, 
397.00000,1.470093
397.50000, 
398.00000,1.432526
398.50000, 
399.00000,1.399200
399.50000, 
400.00000,1.369751
400.50000, 
401.00000,1.343124
401.50000, 
402.00000,1.319275
402.50000, 
403.00000,1.297256
403.50000, 
404.00000,1.276230
404.50000, 
405.00000,1.257538
405.50000, 
406.00000,1.241211
406.50000, 
407.00000,1.225159
407.50000, 
408.00000,1.211594
408.50000, 
409.00000,1.199951
409.50000, 
410.00000,1.188461
410.50000, 
411.00000,1.179611
411.50000, 
412.00000,1.171219
412.50000, 
413.00000,1.163803
413.50000, 
414.00000,1.157516
414.50000, 
415.00000,1.152344
415.50000, 
416.00000,1.147751
416.50000, 
417.00000,1.144211
417.50000, 
418.00000,1.140228
418.50000, 
419.00000,1.136459
419.50000, 
420.00000,1.133438
420.50000, 
421.00000,1.130356
421.50000, 
422.00000,1.128372
422.50000, 
423.00000,1.125992
423.50000, 
424.00000,1.124130
424.50000, 
425.00000,1.122757
425.50000, 
426.00000,1.121155
426.50000, 
427.00000,1.120255
427.50000, 
428.00000,1.120026
428.50000, 
429.00000,1.119247
429.50000, 
430.00000,1.118744
430.50000, 
431.00000,1.119049
431.50000, 
432.00000,1.119125
432.50000, 
433.00000,1.119400
433.50000, 
434.00000,1.119766
434.50000, 
435.00000,1.120102
435.50000, 
436.00000,1.120407
436.50000, 
437.00000,1.120605
437.50000, 
438.00000,1.121033
438.50000, 
439.00000,1.121338
439.50000, 
440.00000,1.121735
440.50000, 
441.00000,1.122131
441.50000, 
442.00000,1.122726
442.50000, 
443.00000,1.123657
443.50000, 
444.00000,1.124161
444.50000, 
445.00000,1.124985
445.50000, 
446.00000,1.126358
446.50000, 
447.00000,1.127197
447.50000, 
448.00000,1.128571
448.50000, 
449.00000,1.129333
449.50000, 
450.00000,1.130615
450.50000, 
451.00000,1.131866
451.50000, 
452.00000,1.133179
452.50000, 
453.00000,1.134659
453.50000, 
454.00000,1.136185
454.50000, 
455.00000,1.137543
455.50000, 
456.00000,1.139297
456.50000, 
457.00000,1.140915
457.50000, 
458.00000,1.142670
458.50000, 
459.00000,1.144424
459.50000, 
460.00000,1.146011
460.50000, 
461.00000,1.147903
461.50000, 
462.00000,1.149536
462.50000, 
463.00000,1.151459
463.50000, 
464.00000,1.153412
464.50000, 
465.00000,1.154846
465.50000, 
466.00000,1.156662
466.50000, 
467.00000,1.158356
467.50000, 
468.00000,1.160049
468.50000, 
469.00000,1.161148
469.50000, 
470.00000,1.162018
470.50000, 
471.00000,1.162277
471.50000, 
472.00000,1.161301
472.50000, 
473.00000,1.158478
473.50000, 
474.00000,1.158813
474.50000, 
475.00000,1.163269
475.50000, 
476.00000,1.168854
476.50000, 
477.00000,1.175125
477.50000, 
478.00000,1.182465
478.50000, 
479.00000,1.190735
479.50000, 
480.00000,1.200302
480.50000, 
481.00000,1.211472
481.50000, 
482.00000,1.223648
482.50000, 
483.00000,1.237930
483.50000, 
484.00000,1.254272
484.50000, 
485.00000,1.271698
485.50000, 
486.00000,1.290588
486.50000, 
487.00000,1.311218
487.50000, 
488.00000,1.331421
488.50000, 
489.00000,1.350449
489.50000, 
490.00000,1.368164
490.50000, 
491.00000,1.383270
491.50000, 
492.00000,1.395142
492.50000, 
493.00000,1.404099
493.50000, 
494.00000,1.410294
494.50000, 
495.00000,1.413239
495.50000, 
496.00000,1.413651
496.50000, 
497.00000,1.412567
497.50000, 
498.00000,1.409836
498.50000, 
499.00000,1.406631
499.50000, 
500.00000,1.402710
500.50000, 
501.00000,1.398636
501.50000, 
502.00000,1.394302
502.50000, 
503.00000,1.390320
503.50000, 
504.00000,1.386490
504.50000, 
505.00000,1.382751
505.50000, 
506.00000,1.379547
506.50000, 
507.00000,1.376678
507.50000, 
508.00000,1.374115
508.50000, 
509.00000,1.371872
509.50000, 
510.00000,1.370010
510.50000, 
511.00000,1.368423
511.50000, 
512.00000,1.366806
512.50000, 
513.00000,1.365326
513.50000, 
514.00000,1.364014
514.50000, 
515.00000,1.362854
515.50000, 
516.00000,1.361771
516.50000, 
517.00000,1.360825
517.50000, 
518.00000,1.359665
518.50000, 
519.00000,1.358429
519.50000, 
520.00000,1.357346
520.50000, 
521.00000,1.356262
521.50000, 
522.00000,1.355179
522.50000, 
523.00000,1.353775
523.50000, 
524.00000,1.352585
524.50000, 
525.00000,1.351578
525.50000, 
526.00000,1.350479
526.50000, 
527.00000,1.349243
527.50000, 
528.00000,1.347702
528.50000, 
529.00000,1.346573
529.50000, 
530.00000,1.345734
530.50000, 
531.00000,1.344589
531.50000, 
532.00000,1.343613
532.50000, 
533.00000,1.342728
533.50000, 
534.00000,1.342056
534.50000, 
535.00000,1.341644
535.50000, 
536.00000,1.339905
536.50000, 
537.00000,1.337997
537.50000, 
538.00000,1.338013
538.50000, 
539.00000,1.338318
539.50000, 
540.00000,1.338806
540.50000, 
541.00000,1.339386
541.50000, 
542.00000,1.340103
542.50000, 
543.00000,1.341034
543.50000, 
544.00000,1.342102
544.50000, 
545.00000,1.343292
545.50000, 
546.00000,1.344482
546.50000, 
547.00000,1.345779
547.50000, 
548.00000,1.347244
548.50000, 
549.00000,1.348541
549.50000, 
550.00000,1.349747
550.50000, 
551.00000,1.350906
551.50000, 
552.00000,1.352386
552.50000, 
553.00000,1.353302
553.50000, 
554.00000,1.354111
554.50000, 
555.00000,1.354645
555.50000, 
556.00000,1.355148
556.50000, 
557.00000,1.354996
557.50000, 
558.00000,1.354813
558.50000, 
559.00000,1.354172
559.50000, 
560.00000,1.353287
560.50000, 
561.00000,1.352051
561.50000, 
562.00000,1.350327
562.50000, 
563.00000,1.348373
563.50000, 
564.00000,1.346085
564.50000, 
565.00000,1.343369
565.50000, 
566.00000,1.340286
566.50000, 
567.00000,1.336945
567.50000, 
568.00000,1.333313
568.50000, 
569.00000,1.329361
569.50000, 
570.00000,1.325104
570.50000, 
571.00000,1.320847
571.50000, 
572.00000,1.316315
572.50000, 
573.00000,1.311737
573.50000, 
574.00000,1.306885
574.50000, 
575.00000,1.301773
575.50000, 
576.00000,1.296646
576.50000, 
577.00000,1.291763
577.50000, 
578.00000,1.287109
578.50000, 
579.00000,1.282547
579.50000, 
580.00000,1.278305
580.50000, 
581.00000,1.274185
581.50000, 
582.00000,1.270554
582.50000, 
583.00000,1.267258
583.50000, 
584.00000,1.264206
584.50000, 
585.00000,1.261856
585.50000, 
586.00000,1.259796
586.50000, 
587.00000,1.258224
587.50000, 
588.00000,1.257019
588.50000, 
589.00000,1.256287
589.50000, 
590.00000,1.256058
590.50000, 
591.00000,1.256104
591.50000, 
592.00000,1.256470
592.50000, 
593.00000,1.257248
593.50000, 
594.00000,1.258209
594.50000, 
595.00000,1.259399
595.50000, 
596.00000,1.260696
596.50000, 
597.00000,1.262238
597.50000, 
598.00000,1.263840
598.50000, 
599.00000,1.265198
599.50000, 
600.00000,1.266724
600.50000, 
601.00000,1.268005
601.50000, 
602.00000,1.268967
602.50000, 
603.00000,1.269684
603.50000, 
604.00000,1.269989
604.50000, 
605.00000,1.269760
605.50000, 
606.00000,1.268921
606.50000, 
607.00000,1.267609
607.50000, 
608.00000,1.265656
608.50000, 
609.00000,1.262970
609.50000, 
610.00000,1.259506
610.50000, 
611.00000,1.255524
611.50000, 
612.00000,1.250458
612.50000, 
613.00000,1.244736
613.50000, 
614.00000,1.238373
614.50000, 
615.00000,1.231262
615.50000, 
616.00000,1.223434
616.50000, 
617.00000,1.215012
617.50000, 
618.00000,1.205658
618.50000, 
619.00000,1.195755
619.50000, 
620.00000,1.185318
620.50000, 
621.00000,1.173721
621.50000, 
622.00000,1.161606
622.50000, 
623.00000,1.149170
623.50000, 
624.00000,1.135925
624.50000, 
625.00000,1.122467
625.50000, 
626.00000,1.108704
626.50000, 
627.00000,1.094604
627.50000, 
628.00000,1.080002
628.50000, 
629.00000,1.065170
629.50000, 
630.00000,1.050293
630.50000, 
631.00000,1.035507
631.50000, 
632.00000,1.019562
632.50000, 
633.00000,1.001602
633.50000, 
634.00000,0.980331
634.50000, 
635.00000,0.969116
635.50000, 
636.00000,0.973038
636.50000, 
637.00000,0.981796
637.50000, 
638.00000,0.995224
638.50000, 
639.00000,1.014053
639.50000, 
640.00000,1.037674
640.50000, 
641.00000,1.064896
641.50000, 
642.00000,1.094421
642.50000, 
643.00000,1.122528
643.50000, 
644.00000,1.146622
644.50000, 
645.00000,1.163910
645.50000, 
646.00000,1.172577
646.50000, 
647.00000,1.172394
647.50000, 
648.00000,1.164520
648.50000, 
649.00000,1.150742
649.50000, 
650.00000,1.133392
650.50000, 
651.00000,1.114380
651.50000, 
652.00000,1.095016
652.50000, 
653.00000,1.076126
653.50000, 
654.00000,1.057800
654.50000, 
655.00000,1.041061
655.50000, 
656.00000,1.025848
656.50000, 
657.00000,1.011780
657.50000, 
658.00000,0.999100
658.50000, 
659.00000,0.987396
659.50000, 
660.00000,0.976181
660.50000, 
661.00000,0.965881
661.50000, 
662.00000,0.956802
662.50000, 
663.00000,0.948273
663.50000, 
664.00000,0.940521
664.50000, 
665.00000,0.933304
665.50000, 
666.00000,0.926758
666.50000, 
667.00000,0.920792
667.50000, 
668.00000,0.914963
668.50000, 
669.00000,0.909332
669.50000, 
670.00000,0.904129
670.50000, 
671.00000,0.899185
671.50000, 
672.00000,0.894485
672.50000, 
673.00000,0.890274
673.50000, 
674.00000,0.886200
674.50000, 
675.00000,0.882355
675.50000, 
676.00000,0.878601
676.50000, 
677.00000,0.875290
677.50000, 
678.00000,0.871948
678.50000, 
679.00000,0.868835
679.50000, 
680.00000,0.865829
680.50000, 
681.00000,0.863083
681.50000, 
682.00000,0.860336
682.50000, 
683.00000,0.857819
683.50000, 
684.00000,0.855408
684.50000, 
685.00000,0.853165
685.50000, 
686.00000,0.850845
686.50000, 
687.00000,0.848785
687.50000, 
688.00000,0.846725
688.50000, 
689.00000,0.844849
689.50000, 
690.00000,0.842896
690.50000, 
691.00000,0.840973
691.50000, 
692.00000,0.839233
692.50000, 
693.00000,0.837555
693.50000, 
694.00000,0.835892
694.50000, 
695.00000,0.834167
695.50000, 
696.00000,0.832611
696.50000, 
697.00000,0.831055
697.50000, 
698.00000,0.829590
698.50000, 
699.00000,0.828049
699.50000, 
700.00000,0.826599
700.50000, 
701.00000,0.825089
701.50000, 
702.00000,0.823837
702.50000, 
703.00000,0.822495
703.50000, 
704.00000,0.821228
704.50000, 
705.00000,0.819901
705.50000, 
706.00000,0.818710
706.50000, 
707.00000,0.817337
707.50000, 
708.00000,0.816223
708.50000, 
709.00000,0.814987
709.50000, 
710.00000,0.813766
710.50000, 
711.00000,0.812653
711.50000, 
712.00000,0.811447
712.50000, 
713.00000,0.810379
713.50000, 
714.00000,0.809143
714.50000, 
715.00000,0.807938
715.50000, 
716.00000,0.806763
716.50000, 
717.00000,0.805603
717.50000, 
718.00000,0.804398
718.50000, 
719.00000,0.803314
719.50000, 
720.00000,0.802216
720.50000, 
721.00000,0.801025
721.50000, 
722.00000,0.799988
722.50000, 
723.00000,0.798935
723.50000, 
724.00000,0.798050
724.50000, 
725.00000,0.796906
725.50000, 
726.00000,0.795914
726.50000, 
727.00000,0.794968
727.50000, 
728.00000,0.793976
728.50000, 
729.00000,0.793060
729.50000, 
730.00000,0.792175
730.50000, 
731.00000,0.791351
731.50000, 
732.00000,0.790482
732.50000, 
733.00000,0.789658
733.50000, 
734.00000,0.788864
734.50000, 
735.00000,0.788116
735.50000, 
736.00000,0.787476
736.50000, 
737.00000,0.786682
737.50000, 
738.00000,0.785919
738.50000, 
739.00000,0.785217
739.50000, 
740.00000,0.784424
740.50000, 
741.00000,0.783890
741.50000, 
742.00000,0.783066
742.50000, 
743.00000,0.782288
743.50000, 
744.00000,0.781570
744.50000, 
745.00000,0.780914
745.50000, 
746.00000,0.780212
746.50000, 
747.00000,0.779449
747.50000, 
748.00000,0.778732
748.50000, 
749.00000,0.778015
749.50000, 
750.00000,0.777481
750.50000, 
751.00000,0.776840
751.50000, 
752.00000,0.776215
752.50000, 
753.00000,0.775787
753.50000, 
754.00000,0.775162
754.50000, 
755.00000,0.774673
755.50000, 
756.00000,0.774139
756.50000, 
757.00000,0.773483
757.50000, 
758.00000,0.773178
758.50000, 
759.00000,0.772491
759.50000, 
760.00000,0.772202
760.50000, 
761.00000,0.771622
761.50000, 
762.00000,0.771027
762.50000, 
763.00000,0.770752
763.50000, 
764.00000,0.770157
764.50000, 
765.00000,0.769867
765.50000, 
766.00000,0.769394
766.50000, 
767.00000,0.768860
767.50000, 
768.00000,0.768539
768.50000, 
769.00000,0.768127
769.50000, 
770.00000,0.767746
770.50000, 
771.00000,0.767380
771.50000, 
772.00000,0.766907
772.50000, 
773.00000,0.766510
773.50000, 
774.00000,0.766174
774.50000, 
775.00000,0.765686
775.50000, 
776.00000,0.765488
776.50000, 
777.00000,0.764877
777.50000, 
778.00000,0.764694
778.50000, 
779.00000,0.764145
779.50000, 
780.00000,0.763748
780.50000, 
781.00000,0.763458
781.50000, 
782.00000,0.763077
782.50000, 
783.00000,0.762466
783.50000, 
784.00000,0.762222
784.50000, 
785.00000,0.761551
785.50000, 
786.00000,0.761185
786.50000, 
787.00000,0.760712
787.50000, 
788.00000,0.760010
788.50000, 
789.00000,0.759628
789.50000, 
790.00000,0.758911
790.50000, 
791.00000,0.758301
791.50000, 
792.00000,0.757660
792.50000, 
793.00000,0.756851
793.50000, 
794.00000,0.756058
794.50000, 
795.00000,0.755356
795.50000, 
796.00000,0.754211
796.50000, 
797.00000,0.753647
797.50000, 
798.00000,0.752396
798.50000, 
799.00000,0.751495
799.50000, 
800.00000,0.750427
800.50000, 
801.00000,0.749130
801.50000, 
802.00000,0.747665
802.50000, 
803.00000,0.746658
803.50000, 
804.00000,0.744873
804.50000, 
805.00000,0.743576
805.50000, 
806.00000,0.742050
806.50000, 
807.00000,0.740234
807.50000, 
808.00000,0.738342
808.50000, 
809.00000,0.736542
809.50000, 
810.00000,0.733917
810.50000, 
811.00000,0.732025
811.50000, 
812.00000,0.729645
812.50000, 
813.00000,0.727051
813.50000, 
814.00000,0.724533
814.50000, 
815.00000,0.721832
815.50000, 
816.00000,0.718506
816.50000, 
817.00000,0.715866
817.50000, 
818.00000,0.712357
818.50000, 
819.00000,0.709061
819.50000, 
820.00000,0.705948
820.50000, 
821.00000,0.702225
821.50000, 
822.00000,0.698456
822.50000, 
823.00000,0.695023
823.50000, 
824.00000,0.691055
824.50000, 
825.00000,0.686920
825.50000, 
826.00000,0.683304
826.50000, 
827.00000,0.678680
827.50000, 
828.00000,0.674194
828.50000, 
829.00000,0.669968
829.50000, 
830.00000,0.665497
830.50000, 
831.00000,0.660370
831.50000, 
832.00000,0.656021
832.50000, 
833.00000,0.650894
833.50000, 
834.00000,0.645691
834.50000, 
835.00000,0.640747
835.50000, 
836.00000,0.635193
836.50000, 
837.00000,0.629547
837.50000, 
838.00000,0.624420
838.50000, 
839.00000,0.618683
839.50000, 
840.00000,0.612991
840.50000, 
841.00000,0.608063
841.50000, 
842.00000,0.602173
842.50000, 
843.00000,0.596451
843.50000, 
844.00000,0.590866
844.50000, 
845.00000,0.585144
845.50000, 
846.00000,0.578949
846.50000, 
847.00000,0.573914
847.50000, 
848.00000,0.568558
848.50000, 
849.00000,0.562256
849.50000, 
850.00000,0.556808
850.50000, 
851.00000,0.551300
851.50000, 
852.00000,0.545547
852.50000, 
853.00000,0.539581
853.50000, 
854.00000,0.534256
854.50000, 
855.00000,0.527954
855.50000, 
856.00000,0.522141
856.50000, 
857.00000,0.516830
857.50000, 
858.00000,0.510559
858.50000, 
859.00000,0.504715
859.50000, 
860.00000,0.499329
860.50000, 
861.00000,0.493927
861.50000, 
862.00000,0.487701
862.50000, 
863.00000,0.482635
863.50000, 
864.00000,0.477112
864.50000, 
865.00000,0.471207
865.50000, 
866.00000,0.466263
866.50000, 
867.00000,0.461548
867.50000, 
868.00000,0.456192
868.50000, 
869.00000,0.450989
869.50000, 
870.00000,0.446671
870.50000, 
871.00000,0.441452
871.50000, 
872.00000,0.436249
872.50000, 
873.00000,0.431915
873.50000, 
874.00000,0.427399
874.50000, 
875.00000,0.422409
875.50000, 
876.00000,0.417953
876.50000, 
877.00000,0.413818
877.50000, 
878.00000,0.408691
878.50000, 
879.00000,0.404175
879.50000, 
880.00000,0.400177
880.50000, 
881.00000,0.395340
881.50000, 
882.00000,0.390717
882.50000, 
883.00000,0.387115
883.50000, 
884.00000,0.383087
884.50000, 
885.00000,0.378494
885.50000, 
886.00000,0.375015
886.50000, 
887.00000,0.371582
887.50000, 
888.00000,0.367188
888.50000, 
889.00000,0.363571
889.50000, 
890.00000,0.360855
890.50000, 
891.00000,0.357315
891.50000, 
892.00000,0.353516
892.50000, 
893.00000,0.350632
893.50000, 
894.00000,0.347641
894.50000, 
895.00000,0.344208
895.50000, 
896.00000,0.340973
896.50000, 
897.00000,0.338440
897.50000, 
898.00000,0.335648
898.50000, 
899.00000,0.332108
899.50000, 
900.00000,0.330109
900.50000, 
901.00000, 
901.50000, 
902.00000, 
902.50000, 
903.00000, 
903.50000, 
904.00000, 
904.50000, 
905.00000, 
905.50000, 
906.00000, 
906.50000, 
907.00000, 
907.50000, 
908.00000, 
908.50000, 
909.00000, 
909.50000, 
910.00000, 
910.50000, 
911.00000, 
911.50000, 
912.00000, 
912.50000, 
913.00000, 
913.50000, 
914.00000, 
914.50000, 
915.00000, 
915.50000, 
916.00000, 
916.50000, 
917.00000, 
917.50000, 
918.00000, 
918.50000, 
919.00000, 
919.50000, 
920.00000, 
920.50000, 
921.00000, 
921.50000, 
922.00000, 
922.50000, 
923.00000, 
923.50000, 
924.00000, 
924.50000, 
925.00000, 
925.50000, 
926.00000, 
926.50000, 
927.00000, 
927.50000, 
928.00000, 
928.50000, 
929.00000, 
929.50000, 
930.00000, 
930.50000, 
931.00000, 
931.50000, 
932.00000, 
932.50000, 
933.00000, 
933.50000, 
934.00000, 
934.50000, 
935.00000, 
935.50000, 
936.00000, 
936.50000, 
937.00000, 
937.50000, 
938.00000, 
938.50000, 
939.00000, 
939.50000, 
940.00000, 
940.50000, 
941.00000, 
941.50000, 
942.00000, 
942.50000, 
943.00000, 
943.50000, 
944.00000, 
944.50000, 
945.00000, 
945.50000, 
946.00000, 
946.50000, 
947.00000, 
947.50000, 
948.00000, 
948.50000, 
949.00000, 
949.50000, 
950.00000, 
950.50000, 
951.00000, 
951.50000, 
952.00000, 
952.50000, 
953.00000, 
953.50000, 
954.00000, 
954.50000, 
955.00000, 
955.50000, 
956.00000, 
956.50000, 
957.00000, 
957.50000, 
958.00000, 
958.50000, 
959.00000, 
959.50000, 
960.00000, 
960.50000, 
961.00000, 
961.50000, 
962.00000, 
962.50000, 
963.00000, 
963.50000, 
964.00000, 
964.50000, 
965.00000, 
965.50000, 
966.00000, 
966.50000, 
967.00000, 
967.50000, 
968.00000, 
968.50000, 
969.00000, 
969.50000, 
970.00000, 
970.50000, 
971.00000, 
971.50000, 
972.00000, 
972.50000, 
973.00000, 
973.50000, 
974.00000, 
974.50000, 
975.00000, 
975.50000, 
976.00000, 
976.50000, 
977.00000, 
977.50000, 
978.00000, 
978.50000, 
979.00000, 
979.50000, 
980.00000, 
980.50000, 
981.00000, 
981.50000, 
982.00000, 
982.50000, 
983.00000, 
983.50000, 
984.00000, 
984.50000, 
985.00000, 
985.50000, 
986.00000, 
986.50000, 
987.00000, 
987.50000, 
988.00000, 
988.50000, 
989.00000, 
989.50000, 
990.00000, 
990.50000, 
991.00000, 
991.50000, 
992.00000, 
992.50000, 
993.00000, 
993.50000, 
994.00000, 
994.50000, 
995.00000, 
995.50000, 
996.00000, 
996.50000, 
997.00000, 
997.50000, 
998.00000, 
998.50000, 
999.00000, 
999.50000, 
1000.00000, 
1000.50000, 
1001.00000, 
1001.50000, 
1002.00000, 
1002.50000, 
1003.00000, 
1003.50000, 
1004.00000, 
1004.50000, 
1005.00000, 
1005.50000, 
1006.00000, 
1006.50000, 
1007.00000, 
1007.50000, 
1008.00000, 
1008.50000, 
1009.00000, 
1009.50000, 
1010.00000, 
1010.50000, 
1011.00000, 
1011.50000, 
1012.00000, 
1012.50000, 
1013.00000, 
1013.50000, 
1014.00000, 
1014.50000, 
1015.00000, 
1015.50000, 
1016.00000, 
1016.50000, 
1017.00000, 
1017.50000, 
1018.00000, 
1018.50000, 
1019.00000, 
1019.50000, 
1020.00000, 
1020.50000, 
1021.00000, 
1021.50000, 
1022.00000, 
1022.50000, 
1023.00000, 
1023.50000, 
1024.00000, 
1024.50000, 
1025.00000, 
1025.50000, 
1026.00000, 
1026.50000, 
1027.00000, 
1027.50000, 
1028.00000, 
1028.50000, 
1029.00000, 
1029.50000, 
1030.00000, 
1030.50000, 
1031.00000, 
1031.50000, 
1032.00000, 
1032.50000, 
1033.00000, 
1033.50000, 
1034.00000, 
1034.50000, 
1035.00000, 
1035.50000, 
1036.00000, 
1036.50000, 
1037.00000, 
1037.50000, 
1038.00000, 
1038.50000, 
1039.00000, 
1039.50000, 
1040.00000, 
1040.50000, 
1041.00000, 
1041.50000, 
1042.00000, 
1042.50000, 
1043.00000, 
1043.50000, 
1044.00000, 
1044.50000, 
1045.00000, 
1045.50000, 
1046.00000, 
1046.50000, 
1047.00000, 
1047.50000, 
1048.00000, 
1048.50000, 
1049.00000, 
1049.50000, 
1050.00000, 
1050.50000, 
1051.00000, 
1051.50000, 
1052.00000, 
1052.50000, 
1053.00000, 
1053.50000, 
1054.00000, 
1054.50000, 
1055.00000, 
1055.50000, 
1056.00000, 
1056.50000, 
1057.00000, 
1057.50000, 
1058.00000, 
1058.50000, 
1059.00000, 
1059.50000, 
1060.00000, 
1060.50000, 
1061.00000, 
1061.50000, 
1062.00000, 
1062.50000, 
1063.00000, 
1063.50000, 
1064.00000, 
1064.50000, 
1065.00000, 
1065.50000, 
1066.00000, 
1066.50000, 
1067.00000, 
1067.50000, 
1068.00000, 
1068.50000, 
1069.00000, 
1069.50000, 
1070.00000, 
1070.50000, 
1071.00000, 
1071.50000, 
1072.00000, 
1072.50000, 
1073.00000, 
1073.50000, 
1074.00000, 
1074.50000, 
1075.00000, 
1075.50000, 
1076.00000, 
1076.50000, 
1077.00000, 
1077.50000, 
1078.00000, 
1078.50000, 
1079.00000, 
1079.50000, 
1080.00000, 
1080.50000, 
1081.00000, 
1081.50000, 
1082.00000, 
1082.50000, 
1083.00000, 
1083.50000, 
1084.00000, 
1084.50000, 
1085.00000, 
1085.50000, 
1086.00000, 
1086.50000, 
1087.00000, 
1087.50000, 
1088.00000, 
1088.50000, 
1089.00000, 
1089.50000, 
1090.00000, 
1090.50000, 
1091.00000, 
1091.50000, 
1092.00000, 
1092.50000, 
1093.00000, 
1093.50000, 
1094.00000, 
1094.50000, 
1095.00000, 
1095.50000, 
1096.00000, 
1096.50000, 
1097.00000, 
1097.50000, 
1098.00000, 
1098.50000, 
1099.00000, 
1099.50000, 
1100.00000, 
