"30%2 - RawData"
"Wavelength nm.","Abs."
300.00000,0.757156
300.50000, 
301.00000,0.752029
301.50000, 
302.00000,0.745941
302.50000, 
303.00000,0.740051
303.50000, 
304.00000,0.734436
304.50000, 
305.00000,0.728729
305.50000, 
306.00000,0.720963
306.50000, 
307.00000,0.715347
307.50000, 
308.00000,0.710052
308.50000, 
309.00000,0.705307
309.50000, 
310.00000,0.700729
310.50000, 
311.00000,0.696274
311.50000, 
312.00000,0.692261
312.50000, 
313.00000,0.688614
313.50000, 
314.00000,0.685074
314.50000, 
315.00000,0.682068
315.50000, 
316.00000,0.679062
316.50000, 
317.00000,0.676178
317.50000, 
318.00000,0.674164
318.50000, 
319.00000,0.672592
319.50000, 
320.00000,0.671082
320.50000, 
321.00000,0.669724
321.50000, 
322.00000,0.669144
322.50000, 
323.00000,0.668213
323.50000, 
324.00000,0.667618
324.50000, 
325.00000,0.667938
325.50000, 
326.00000,0.667770
326.50000, 
327.00000,0.667023
327.50000, 
328.00000,0.666962
328.50000, 
329.00000,0.666748
329.50000, 
330.00000,0.666504
330.50000, 
331.00000,0.665573
331.50000, 
332.00000,0.664047
332.50000, 
333.00000,0.663208
333.50000, 
334.00000,0.661407
334.50000, 
335.00000,0.658783
335.50000, 
336.00000,0.656723
336.50000, 
337.00000,0.653534
337.50000, 
338.00000,0.649948
338.50000, 
339.00000,0.645950
339.50000, 
340.00000,0.641418
340.50000, 
341.00000,0.635193
341.50000, 
342.00000,0.631088
342.50000, 
343.00000,0.626572
343.50000, 
344.00000,0.621735
344.50000, 
345.00000,0.617538
345.50000, 
346.00000,0.611984
346.50000, 
347.00000,0.606964
347.50000, 
348.00000,0.603516
348.50000, 
349.00000,0.597763
349.50000, 
350.00000,0.593491
350.50000, 
351.00000,0.588287
351.50000, 
352.00000,0.584122
352.50000, 
353.00000,0.579361
353.50000, 
354.00000,0.575256
354.50000, 
355.00000,0.571243
355.50000, 
356.00000,0.566360
356.50000, 
357.00000,0.562241
357.50000, 
358.00000,0.558121
358.50000, 
359.00000,0.554535
359.50000, 
360.00000,0.550903
360.50000, 
361.00000,0.547516
361.50000, 
362.00000,0.544205
362.50000, 
363.00000,0.541336
363.50000, 
364.00000,0.538254
364.50000, 
365.00000,0.536118
365.50000, 
366.00000,0.533676
366.50000, 
367.00000,0.531097
367.50000, 
368.00000,0.528488
368.50000, 
369.00000,0.525818
369.50000, 
370.00000,0.523560
370.50000, 
371.00000,0.521317
371.50000, 
372.00000,0.519028
372.50000, 
373.00000,0.516739
373.50000, 
374.00000,0.514191
374.50000, 
375.00000,0.512344
375.50000, 
376.00000,0.509933
376.50000, 
377.00000,0.508118
377.50000, 
378.00000,0.506226
378.50000, 
379.00000,0.504196
379.50000, 
380.00000,0.502563
380.50000, 
381.00000,0.501129
381.50000, 
382.00000,0.499405
382.50000, 
383.00000,0.497757
383.50000, 
384.00000,0.496323
384.50000, 
385.00000,0.494965
385.50000, 
386.00000,0.493652
386.50000, 
387.00000,0.492523
387.50000, 
388.00000,0.491409
388.50000, 
389.00000,0.490189
389.50000, 
390.00000,0.489212
390.50000, 
391.00000,0.488403
391.50000, 
392.00000,0.487549
392.50000, 
393.00000,0.486816
393.50000, 
394.00000,0.486420
394.50000, 
395.00000,0.485870
395.50000, 
396.00000,0.485321
396.50000, 
397.00000,0.484985
397.50000, 
398.00000,0.484650
398.50000, 
399.00000,0.484207
399.50000, 
400.00000,0.483917
400.50000, 
401.00000,0.483688
401.50000, 
402.00000,0.483383
402.50000, 
403.00000,0.483368
403.50000, 
404.00000,0.483383
404.50000, 
405.00000,0.483643
405.50000, 
406.00000,0.483780
406.50000, 
407.00000,0.484207
407.50000, 
408.00000,0.484680
408.50000, 
409.00000,0.485214
409.50000, 
410.00000,0.485733
410.50000, 
411.00000,0.486252
411.50000, 
412.00000,0.486847
412.50000, 
413.00000,0.487320
413.50000, 
414.00000,0.487732
414.50000, 
415.00000,0.488525
415.50000, 
416.00000,0.489105
416.50000, 
417.00000,0.489899
417.50000, 
418.00000,0.490524
418.50000, 
419.00000,0.491074
419.50000, 
420.00000,0.491745
420.50000, 
421.00000,0.492447
421.50000, 
422.00000,0.493271
422.50000, 
423.00000,0.493912
423.50000, 
424.00000,0.494659
424.50000, 
425.00000,0.495560
425.50000, 
426.00000,0.496475
426.50000, 
427.00000,0.497742
427.50000, 
428.00000,0.499054
428.50000, 
429.00000,0.500305
429.50000, 
430.00000,0.501846
430.50000, 
431.00000,0.503357
431.50000, 
432.00000,0.504913
432.50000, 
433.00000,0.506424
433.50000, 
434.00000,0.508026
434.50000, 
435.00000,0.509552
435.50000, 
436.00000,0.510925
436.50000, 
437.00000,0.512283
437.50000, 
438.00000,0.513611
438.50000, 
439.00000,0.515106
439.50000, 
440.00000,0.516434
440.50000, 
441.00000,0.517792
441.50000, 
442.00000,0.519089
442.50000, 
443.00000,0.520554
443.50000, 
444.00000,0.522003
444.50000, 
445.00000,0.523697
445.50000, 
446.00000,0.525162
446.50000, 
447.00000,0.526871
447.50000, 
448.00000,0.528488
448.50000, 
449.00000,0.530167
449.50000, 
450.00000,0.531754
450.50000, 
451.00000,0.533478
451.50000, 
452.00000,0.535233
452.50000, 
453.00000,0.537109
453.50000, 
454.00000,0.538940
454.50000, 
455.00000,0.540833
455.50000, 
456.00000,0.542709
456.50000, 
457.00000,0.544830
457.50000, 
458.00000,0.546722
458.50000, 
459.00000,0.548706
459.50000, 
460.00000,0.550720
460.50000, 
461.00000,0.552780
461.50000, 
462.00000,0.554733
462.50000, 
463.00000,0.556870
463.50000, 
464.00000,0.559006
464.50000, 
465.00000,0.560944
465.50000, 
466.00000,0.563034
466.50000, 
467.00000,0.565170
467.50000, 
468.00000,0.567398
468.50000, 
469.00000,0.569382
469.50000, 
470.00000,0.571457
470.50000, 
471.00000,0.573563
471.50000, 
472.00000,0.575638
472.50000, 
473.00000,0.577484
473.50000, 
474.00000,0.579803
474.50000, 
475.00000,0.581894
475.50000, 
476.00000,0.584152
476.50000, 
477.00000,0.586456
477.50000, 
478.00000,0.588699
478.50000, 
479.00000,0.591003
479.50000, 
480.00000,0.593201
480.50000, 
481.00000,0.595367
481.50000, 
482.00000,0.597504
482.50000, 
483.00000,0.599670
483.50000, 
484.00000,0.601974
484.50000, 
485.00000,0.604065
485.50000, 
486.00000,0.606094
486.50000, 
487.00000,0.608185
487.50000, 
488.00000,0.610199
488.50000, 
489.00000,0.612076
489.50000, 
490.00000,0.613937
490.50000, 
491.00000,0.615631
491.50000, 
492.00000,0.617279
492.50000, 
493.00000,0.618851
493.50000, 
494.00000,0.620331
494.50000, 
495.00000,0.621841
495.50000, 
496.00000,0.623276
496.50000, 
497.00000,0.624771
497.50000, 
498.00000,0.626175
498.50000, 
499.00000,0.627655
499.50000, 
500.00000,0.629013
500.50000, 
501.00000,0.630493
501.50000, 
502.00000,0.632034
502.50000, 
503.00000,0.633453
503.50000, 
504.00000,0.634979
504.50000, 
505.00000,0.636536
505.50000, 
506.00000,0.638000
506.50000, 
507.00000,0.639435
507.50000, 
508.00000,0.640961
508.50000, 
509.00000,0.642334
509.50000, 
510.00000,0.643616
510.50000, 
511.00000,0.644836
511.50000, 
512.00000,0.645874
512.50000, 
513.00000,0.647034
513.50000, 
514.00000,0.648102
514.50000, 
515.00000,0.648926
515.50000, 
516.00000,0.649719
516.50000, 
517.00000,0.650436
517.50000, 
518.00000,0.650986
518.50000, 
519.00000,0.651443
519.50000, 
520.00000,0.651794
520.50000, 
521.00000,0.652145
521.50000, 
522.00000,0.652344
522.50000, 
523.00000,0.652435
523.50000, 
524.00000,0.652390
524.50000, 
525.00000,0.652359
525.50000, 
526.00000,0.652206
526.50000, 
527.00000,0.652008
527.50000, 
528.00000,0.651764
528.50000, 
529.00000,0.651459
529.50000, 
530.00000,0.651215
530.50000, 
531.00000,0.650909
531.50000, 
532.00000,0.650665
532.50000, 
533.00000,0.650406
533.50000, 
534.00000,0.650223
534.50000, 
535.00000,0.650085
535.50000, 
536.00000,0.649521
536.50000, 
537.00000,0.648880
537.50000, 
538.00000,0.648941
538.50000, 
539.00000,0.649170
539.50000, 
540.00000,0.649445
540.50000, 
541.00000,0.649734
541.50000, 
542.00000,0.650162
542.50000, 
543.00000,0.650665
543.50000, 
544.00000,0.651230
544.50000, 
545.00000,0.651718
545.50000, 
546.00000,0.652344
546.50000, 
547.00000,0.652954
547.50000, 
548.00000,0.653610
548.50000, 
549.00000,0.654282
549.50000, 
550.00000,0.654831
550.50000, 
551.00000,0.655411
551.50000, 
552.00000,0.655930
552.50000, 
553.00000,0.656296
553.50000, 
554.00000,0.656616
554.50000, 
555.00000,0.656784
555.50000, 
556.00000,0.656693
556.50000, 
557.00000,0.656433
557.50000, 
558.00000,0.655991
558.50000, 
559.00000,0.655426
559.50000, 
560.00000,0.654785
560.50000, 
561.00000,0.653641
561.50000, 
562.00000,0.652374
562.50000, 
563.00000,0.650940
563.50000, 
564.00000,0.649216
564.50000, 
565.00000,0.647308
565.50000, 
566.00000,0.645187
566.50000, 
567.00000,0.642944
567.50000, 
568.00000,0.640396
568.50000, 
569.00000,0.637711
569.50000, 
570.00000,0.634857
570.50000, 
571.00000,0.631882
571.50000, 
572.00000,0.628754
572.50000, 
573.00000,0.625595
573.50000, 
574.00000,0.622253
574.50000, 
575.00000,0.618729
575.50000, 
576.00000,0.615234
576.50000, 
577.00000,0.611801
577.50000, 
578.00000,0.608383
578.50000, 
579.00000,0.605072
579.50000, 
580.00000,0.601990
580.50000, 
581.00000,0.599091
581.50000, 
582.00000,0.596298
582.50000, 
583.00000,0.593735
583.50000, 
584.00000,0.591324
584.50000, 
585.00000,0.589340
585.50000, 
586.00000,0.587677
586.50000, 
587.00000,0.586243
587.50000, 
588.00000,0.585007
588.50000, 
589.00000,0.584091
589.50000, 
590.00000,0.583527
590.50000, 
591.00000,0.583221
591.50000, 
592.00000,0.583099
592.50000, 
593.00000,0.583038
593.50000, 
594.00000,0.583176
594.50000, 
595.00000,0.583511
595.50000, 
596.00000,0.584015
596.50000, 
597.00000,0.584610
597.50000, 
598.00000,0.585236
598.50000, 
599.00000,0.585876
599.50000, 
600.00000,0.586380
600.50000, 
601.00000,0.586792
601.50000, 
602.00000,0.587082
602.50000, 
603.00000,0.587112
603.50000, 
604.00000,0.586884
604.50000, 
605.00000,0.586472
605.50000, 
606.00000,0.585602
606.50000, 
607.00000,0.584366
607.50000, 
608.00000,0.582672
608.50000, 
609.00000,0.580521
609.50000, 
610.00000,0.577988
610.50000, 
611.00000,0.575180
611.50000, 
612.00000,0.571655
612.50000, 
613.00000,0.567566
613.50000, 
614.00000,0.563049
614.50000, 
615.00000,0.557983
615.50000, 
616.00000,0.552277
616.50000, 
617.00000,0.546173
617.50000, 
618.00000,0.539566
618.50000, 
619.00000,0.532623
619.50000, 
620.00000,0.525208
620.50000, 
621.00000,0.516953
621.50000, 
622.00000,0.508133
622.50000, 
623.00000,0.498840
623.50000, 
624.00000,0.488876
624.50000, 
625.00000,0.478760
625.50000, 
626.00000,0.468582
626.50000, 
627.00000,0.458084
627.50000, 
628.00000,0.447296
628.50000, 
629.00000,0.436539
629.50000, 
630.00000,0.425751
630.50000, 
631.00000,0.415070
631.50000, 
632.00000,0.404388
632.50000, 
633.00000,0.394058
633.50000, 
634.00000,0.383911
634.50000, 
635.00000,0.373886
635.50000, 
636.00000,0.365067
636.50000, 
637.00000,0.356506
637.50000, 
638.00000,0.348633
638.50000, 
639.00000,0.340881
639.50000, 
640.00000,0.333755
640.50000, 
641.00000,0.327072
641.50000, 
642.00000,0.320679
642.50000, 
643.00000,0.314682
643.50000, 
644.00000,0.308945
644.50000, 
645.00000,0.303513
645.50000, 
646.00000,0.298218
646.50000, 
647.00000,0.293152
647.50000, 
648.00000,0.288208
648.50000, 
649.00000,0.283447
649.50000, 
650.00000,0.278961
650.50000, 
651.00000,0.274872
651.50000, 
652.00000,0.270950
652.50000, 
653.00000,0.267334
653.50000, 
654.00000,0.263916
654.50000, 
655.00000,0.260818
655.50000, 
656.00000,0.257843
656.50000, 
657.00000,0.255219
657.50000, 
658.00000,0.252686
658.50000, 
659.00000,0.250351
659.50000, 
660.00000,0.248108
660.50000, 
661.00000,0.245972
661.50000, 
662.00000,0.244080
662.50000, 
663.00000,0.242249
663.50000, 
664.00000,0.240494
664.50000, 
665.00000,0.238876
665.50000, 
666.00000,0.237518
666.50000, 
667.00000,0.236115
667.50000, 
668.00000,0.234726
668.50000, 
669.00000,0.233414
669.50000, 
670.00000,0.232208
670.50000, 
671.00000,0.231003
671.50000, 
672.00000,0.229889
672.50000, 
673.00000,0.228928
673.50000, 
674.00000,0.227875
674.50000, 
675.00000,0.226929
675.50000, 
676.00000,0.225906
676.50000, 
677.00000,0.225037
677.50000, 
678.00000,0.224182
678.50000, 
679.00000,0.223343
679.50000, 
680.00000,0.222580
680.50000, 
681.00000,0.221848
681.50000, 
682.00000,0.221115
682.50000, 
683.00000,0.220444
683.50000, 
684.00000,0.219833
684.50000, 
685.00000,0.219223
685.50000, 
686.00000,0.218674
686.50000, 
687.00000,0.218033
687.50000, 
688.00000,0.217484
688.50000, 
689.00000,0.216995
689.50000, 
690.00000,0.216476
690.50000, 
691.00000,0.215912
691.50000, 
692.00000,0.215393
692.50000, 
693.00000,0.214935
693.50000, 
694.00000,0.214569
694.50000, 
695.00000,0.214127
695.50000, 
696.00000,0.213684
696.50000, 
697.00000,0.213272
697.50000, 
698.00000,0.212830
698.50000, 
699.00000,0.212433
699.50000, 
700.00000,0.212021
700.50000, 
701.00000,0.211594
701.50000, 
702.00000,0.211197
702.50000, 
703.00000,0.210861
703.50000, 
704.00000,0.210495
704.50000, 
705.00000,0.210114
705.50000, 
706.00000,0.209763
706.50000, 
707.00000,0.209351
707.50000, 
708.00000,0.209015
708.50000, 
709.00000,0.208603
709.50000, 
710.00000,0.208191
710.50000, 
711.00000,0.207825
711.50000, 
712.00000,0.207336
712.50000, 
713.00000,0.206940
713.50000, 
714.00000,0.206451
714.50000, 
715.00000,0.205994
715.50000, 
716.00000,0.205566
716.50000, 
717.00000,0.205078
717.50000, 
718.00000,0.204575
718.50000, 
719.00000,0.204163
719.50000, 
720.00000,0.203720
720.50000, 
721.00000,0.203262
721.50000, 
722.00000,0.202835
722.50000, 
723.00000,0.202438
723.50000, 
724.00000,0.201920
724.50000, 
725.00000,0.201523
725.50000, 
726.00000,0.201172
726.50000, 
727.00000,0.200775
727.50000, 
728.00000,0.200409
728.50000, 
729.00000,0.200027
729.50000, 
730.00000,0.199661
730.50000, 
731.00000,0.199280
731.50000, 
732.00000,0.198929
732.50000, 
733.00000,0.198654
733.50000, 
734.00000,0.198318
734.50000, 
735.00000,0.197983
735.50000, 
736.00000,0.197723
736.50000, 
737.00000,0.197464
737.50000, 
738.00000,0.197159
738.50000, 
739.00000,0.196884
739.50000, 
740.00000,0.196548
740.50000, 
741.00000,0.196289
741.50000, 
742.00000,0.195923
742.50000, 
743.00000,0.195648
743.50000, 
744.00000,0.195404
744.50000, 
745.00000,0.195145
745.50000, 
746.00000,0.194778
746.50000, 
747.00000,0.194366
747.50000, 
748.00000,0.193970
748.50000, 
749.00000,0.193665
749.50000, 
750.00000,0.193390
750.50000, 
751.00000,0.193024
751.50000, 
752.00000,0.192764
752.50000, 
753.00000,0.192535
753.50000, 
754.00000,0.192307
754.50000, 
755.00000,0.192062
755.50000, 
756.00000,0.191849
756.50000, 
757.00000,0.191620
757.50000, 
758.00000,0.191376
758.50000, 
759.00000,0.191071
759.50000, 
760.00000,0.190887
760.50000, 
761.00000,0.190689
761.50000, 
762.00000,0.190399
762.50000, 
763.00000,0.190231
763.50000, 
764.00000,0.190002
764.50000, 
765.00000,0.189743
765.50000, 
766.00000,0.189499
766.50000, 
767.00000,0.189255
767.50000, 
768.00000,0.189087
768.50000, 
769.00000,0.188858
769.50000, 
770.00000,0.188644
770.50000, 
771.00000,0.188461
771.50000, 
772.00000,0.188263
772.50000, 
773.00000,0.187973
773.50000, 
774.00000,0.187820
774.50000, 
775.00000,0.187576
775.50000, 
776.00000,0.187347
776.50000, 
777.00000,0.187180
777.50000, 
778.00000,0.186966
778.50000, 
779.00000,0.186768
779.50000, 
780.00000,0.186584
780.50000, 
781.00000,0.186386
781.50000, 
782.00000,0.186279
782.50000, 
783.00000,0.186081
783.50000, 
784.00000,0.185852
784.50000, 
785.00000,0.185654
785.50000, 
786.00000,0.185440
786.50000, 
787.00000,0.185287
787.50000, 
788.00000,0.185135
788.50000, 
789.00000,0.184891
789.50000, 
790.00000,0.184784
790.50000, 
791.00000,0.184586
791.50000, 
792.00000,0.184372
792.50000, 
793.00000,0.184174
793.50000, 
794.00000,0.184021
794.50000, 
795.00000,0.183884
795.50000, 
796.00000,0.183731
796.50000, 
797.00000,0.183563
797.50000, 
798.00000,0.183350
798.50000, 
799.00000,0.183197
799.50000, 
800.00000,0.182999
800.50000, 
801.00000,0.182831
801.50000, 
802.00000,0.182663
802.50000, 
803.00000,0.182556
803.50000, 
804.00000,0.182388
804.50000, 
805.00000,0.182220
805.50000, 
806.00000,0.182098
806.50000, 
807.00000,0.181931
807.50000, 
808.00000,0.181824
808.50000, 
809.00000,0.181641
809.50000, 
810.00000,0.181427
810.50000, 
811.00000,0.181229
811.50000, 
812.00000,0.181107
812.50000, 
813.00000,0.180969
813.50000, 
814.00000,0.180832
814.50000, 
815.00000,0.180725
815.50000, 
816.00000,0.180481
816.50000, 
817.00000,0.180267
817.50000, 
818.00000,0.180069
818.50000, 
819.00000,0.179977
819.50000, 
820.00000,0.179855
820.50000, 
821.00000,0.179657
821.50000, 
822.00000,0.179504
822.50000, 
823.00000,0.179352
823.50000, 
824.00000,0.179230
824.50000, 
825.00000,0.179153
825.50000, 
826.00000,0.179016
826.50000, 
827.00000,0.178802
827.50000, 
828.00000,0.178635
828.50000, 
829.00000,0.178513
829.50000, 
830.00000,0.178345
830.50000, 
831.00000,0.178192
831.50000, 
832.00000,0.178085
832.50000, 
833.00000,0.177994
833.50000, 
834.00000,0.177841
834.50000, 
835.00000,0.177719
835.50000, 
836.00000,0.177582
836.50000, 
837.00000,0.177414
837.50000, 
838.00000,0.177353
838.50000, 
839.00000,0.177185
839.50000, 
840.00000,0.177017
840.50000, 
841.00000,0.176865
841.50000, 
842.00000,0.176773
842.50000, 
843.00000,0.176590
843.50000, 
844.00000,0.176514
844.50000, 
845.00000,0.176407
845.50000, 
846.00000,0.176300
846.50000, 
847.00000,0.176239
847.50000, 
848.00000,0.176117
848.50000, 
849.00000,0.175964
849.50000, 
850.00000,0.175842
850.50000, 
851.00000,0.175720
851.50000, 
852.00000,0.175598
852.50000, 
853.00000,0.175491
853.50000, 
854.00000,0.175354
854.50000, 
855.00000,0.175186
855.50000, 
856.00000,0.175079
856.50000, 
857.00000,0.174957
857.50000, 
858.00000,0.174805
858.50000, 
859.00000,0.174683
859.50000, 
860.00000,0.174591
860.50000, 
861.00000,0.174438
861.50000, 
862.00000,0.174301
862.50000, 
863.00000,0.174210
863.50000, 
864.00000,0.174042
864.50000, 
865.00000,0.173950
865.50000, 
866.00000,0.173828
866.50000, 
867.00000,0.173782
867.50000, 
868.00000,0.173691
868.50000, 
869.00000,0.173569
869.50000, 
870.00000,0.173462
870.50000, 
871.00000,0.173325
871.50000, 
872.00000,0.173218
872.50000, 
873.00000,0.173126
873.50000, 
874.00000,0.173096
874.50000, 
875.00000,0.173080
875.50000, 
876.00000,0.172989
876.50000, 
877.00000,0.172913
877.50000, 
878.00000,0.172882
878.50000, 
879.00000,0.172745
879.50000, 
880.00000,0.172592
880.50000, 
881.00000,0.172470
881.50000, 
882.00000,0.172394
882.50000, 
883.00000,0.172241
883.50000, 
884.00000,0.172134
884.50000, 
885.00000,0.171982
885.50000, 
886.00000,0.171967
886.50000, 
887.00000,0.171875
887.50000, 
888.00000,0.171799
888.50000, 
889.00000,0.171722
889.50000, 
890.00000,0.171722
890.50000, 
891.00000,0.171692
891.50000, 
892.00000,0.171677
892.50000, 
893.00000,0.171646
893.50000, 
894.00000,0.171646
894.50000, 
895.00000,0.171707
895.50000, 
896.00000,0.171722
896.50000, 
897.00000,0.171783
897.50000, 
898.00000,0.171906
898.50000, 
899.00000,0.171982
899.50000, 
900.00000,0.172119
900.50000, 
901.00000, 
901.50000, 
902.00000, 
902.50000, 
903.00000, 
903.50000, 
904.00000, 
904.50000, 
905.00000, 
905.50000, 
906.00000, 
906.50000, 
907.00000, 
907.50000, 
908.00000, 
908.50000, 
909.00000, 
909.50000, 
910.00000, 
910.50000, 
911.00000, 
911.50000, 
912.00000, 
912.50000, 
913.00000, 
913.50000, 
914.00000, 
914.50000, 
915.00000, 
915.50000, 
916.00000, 
916.50000, 
917.00000, 
917.50000, 
918.00000, 
918.50000, 
919.00000, 
919.50000, 
920.00000, 
920.50000, 
921.00000, 
921.50000, 
922.00000, 
922.50000, 
923.00000, 
923.50000, 
924.00000, 
924.50000, 
925.00000, 
925.50000, 
926.00000, 
926.50000, 
927.00000, 
927.50000, 
928.00000, 
928.50000, 
929.00000, 
929.50000, 
930.00000, 
930.50000, 
931.00000, 
931.50000, 
932.00000, 
932.50000, 
933.00000, 
933.50000, 
934.00000, 
934.50000, 
935.00000, 
935.50000, 
936.00000, 
936.50000, 
937.00000, 
937.50000, 
938.00000, 
938.50000, 
939.00000, 
939.50000, 
940.00000, 
940.50000, 
941.00000, 
941.50000, 
942.00000, 
942.50000, 
943.00000, 
943.50000, 
944.00000, 
944.50000, 
945.00000, 
945.50000, 
946.00000, 
946.50000, 
947.00000, 
947.50000, 
948.00000, 
948.50000, 
949.00000, 
949.50000, 
950.00000, 
950.50000, 
951.00000, 
951.50000, 
952.00000, 
952.50000, 
953.00000, 
953.50000, 
954.00000, 
954.50000, 
955.00000, 
955.50000, 
956.00000, 
956.50000, 
957.00000, 
957.50000, 
958.00000, 
958.50000, 
959.00000, 
959.50000, 
960.00000, 
960.50000, 
961.00000, 
961.50000, 
962.00000, 
962.50000, 
963.00000, 
963.50000, 
964.00000, 
964.50000, 
965.00000, 
965.50000, 
966.00000, 
966.50000, 
967.00000, 
967.50000, 
968.00000, 
968.50000, 
969.00000, 
969.50000, 
970.00000, 
970.50000, 
971.00000, 
971.50000, 
972.00000, 
972.50000, 
973.00000, 
973.50000, 
974.00000, 
974.50000, 
975.00000, 
975.50000, 
976.00000, 
976.50000, 
977.00000, 
977.50000, 
978.00000, 
978.50000, 
979.00000, 
979.50000, 
980.00000, 
980.50000, 
981.00000, 
981.50000, 
982.00000, 
982.50000, 
983.00000, 
983.50000, 
984.00000, 
984.50000, 
985.00000, 
985.50000, 
986.00000, 
986.50000, 
987.00000, 
987.50000, 
988.00000, 
988.50000, 
989.00000, 
989.50000, 
990.00000, 
990.50000, 
991.00000, 
991.50000, 
992.00000, 
992.50000, 
993.00000, 
993.50000, 
994.00000, 
994.50000, 
995.00000, 
995.50000, 
996.00000, 
996.50000, 
997.00000, 
997.50000, 
998.00000, 
998.50000, 
999.00000, 
999.50000, 
1000.00000, 
1000.50000, 
1001.00000, 
1001.50000, 
1002.00000, 
1002.50000, 
1003.00000, 
1003.50000, 
1004.00000, 
1004.50000, 
1005.00000, 
1005.50000, 
1006.00000, 
1006.50000, 
1007.00000, 
1007.50000, 
1008.00000, 
1008.50000, 
1009.00000, 
1009.50000, 
1010.00000, 
1010.50000, 
1011.00000, 
1011.50000, 
1012.00000, 
1012.50000, 
1013.00000, 
1013.50000, 
1014.00000, 
1014.50000, 
1015.00000, 
1015.50000, 
1016.00000, 
1016.50000, 
1017.00000, 
1017.50000, 
1018.00000, 
1018.50000, 
1019.00000, 
1019.50000, 
1020.00000, 
1020.50000, 
1021.00000, 
1021.50000, 
1022.00000, 
1022.50000, 
1023.00000, 
1023.50000, 
1024.00000, 
1024.50000, 
1025.00000, 
1025.50000, 
1026.00000, 
1026.50000, 
1027.00000, 
1027.50000, 
1028.00000, 
1028.50000, 
1029.00000, 
1029.50000, 
1030.00000, 
1030.50000, 
1031.00000, 
1031.50000, 
1032.00000, 
1032.50000, 
1033.00000, 
1033.50000, 
1034.00000, 
1034.50000, 
1035.00000, 
1035.50000, 
1036.00000, 
1036.50000, 
1037.00000, 
1037.50000, 
1038.00000, 
1038.50000, 
1039.00000, 
1039.50000, 
1040.00000, 
1040.50000, 
1041.00000, 
1041.50000, 
1042.00000, 
1042.50000, 
1043.00000, 
1043.50000, 
1044.00000, 
1044.50000, 
1045.00000, 
1045.50000, 
1046.00000, 
1046.50000, 
1047.00000, 
1047.50000, 
1048.00000, 
1048.50000, 
1049.00000, 
1049.50000, 
1050.00000, 
1050.50000, 
1051.00000, 
1051.50000, 
1052.00000, 
1052.50000, 
1053.00000, 
1053.50000, 
1054.00000, 
1054.50000, 
1055.00000, 
1055.50000, 
1056.00000, 
1056.50000, 
1057.00000, 
1057.50000, 
1058.00000, 
1058.50000, 
1059.00000, 
1059.50000, 
1060.00000, 
1060.50000, 
1061.00000, 
1061.50000, 
1062.00000, 
1062.50000, 
1063.00000, 
1063.50000, 
1064.00000, 
1064.50000, 
1065.00000, 
1065.50000, 
1066.00000, 
1066.50000, 
1067.00000, 
1067.50000, 
1068.00000, 
1068.50000, 
1069.00000, 
1069.50000, 
1070.00000, 
1070.50000, 
1071.00000, 
1071.50000, 
1072.00000, 
1072.50000, 
1073.00000, 
1073.50000, 
1074.00000, 
1074.50000, 
1075.00000, 
1075.50000, 
1076.00000, 
1076.50000, 
1077.00000, 
1077.50000, 
1078.00000, 
1078.50000, 
1079.00000, 
1079.50000, 
1080.00000, 
1080.50000, 
1081.00000, 
1081.50000, 
1082.00000, 
1082.50000, 
1083.00000, 
1083.50000, 
1084.00000, 
1084.50000, 
1085.00000, 
1085.50000, 
1086.00000, 
1086.50000, 
1087.00000, 
1087.50000, 
1088.00000, 
1088.50000, 
1089.00000, 
1089.50000, 
1090.00000, 
1090.50000, 
1091.00000, 
1091.50000, 
1092.00000, 
1092.50000, 
1093.00000, 
1093.50000, 
1094.00000, 
1094.50000, 
1095.00000, 
1095.50000, 
1096.00000, 
1096.50000, 
1097.00000, 
1097.50000, 
1098.00000, 
1098.50000, 
1099.00000, 
1099.50000, 
1100.00000, 
