"20%H - RawData"
"Wavelength nm.","Abs."
300.00000,3.982574
300.50000, 
301.00000,3.795853
301.50000, 
302.00000,3.861023
302.50000, 
303.00000,3.942612
303.50000, 
304.00000,3.972046
304.50000, 
305.00000,3.836090
305.50000, 
306.00000,3.833038
306.50000, 
307.00000,3.976440
307.50000, 
308.00000,3.939545
308.50000, 
309.00000,3.988266
309.50000, 
310.00000,3.949493
310.50000, 
311.00000,4.000000
311.50000, 
312.00000,3.948364
312.50000, 
313.00000,3.934982
313.50000, 
314.00000,3.841583
314.50000, 
315.00000,3.898102
315.50000, 
316.00000,3.949265
316.50000, 
317.00000,3.842941
317.50000, 
318.00000,3.781631
318.50000, 
319.00000,3.959045
319.50000, 
320.00000,3.982742
320.50000, 
321.00000,3.909241
321.50000, 
322.00000,3.900543
322.50000, 
323.00000,3.913788
323.50000, 
324.00000,3.942215
324.50000, 
325.00000,3.955460
325.50000, 
326.00000,3.932861
326.50000, 
327.00000,3.904831
327.50000, 
328.00000,3.933334
328.50000, 
329.00000,3.857635
329.50000, 
330.00000,3.970016
330.50000, 
331.00000,3.869965
331.50000, 
332.00000,3.951447
332.50000, 
333.00000,3.793839
333.50000, 
334.00000,3.919281
334.50000, 
335.00000,3.946762
335.50000, 
336.00000,3.920929
336.50000, 
337.00000,3.721710
337.50000, 
338.00000,3.852280
338.50000, 
339.00000,3.870453
339.50000, 
340.00000,3.675308
340.50000, 
341.00000,3.779877
341.50000, 
342.00000,3.772263
342.50000, 
343.00000,3.851730
343.50000, 
344.00000,3.774002
344.50000, 
345.00000,3.813034
345.50000, 
346.00000,3.905792
346.50000, 
347.00000,3.922302
347.50000, 
348.00000,3.722565
348.50000, 
349.00000,3.761978
349.50000, 
350.00000,3.982254
350.50000, 
351.00000,3.893219
351.50000, 
352.00000,3.934021
352.50000, 
353.00000,3.989212
353.50000, 
354.00000,3.747055
354.50000, 
355.00000,3.947144
355.50000, 
356.00000,3.913452
356.50000, 
357.00000,3.955963
357.50000, 
358.00000,3.991302
358.50000, 
359.00000,3.929169
359.50000, 
360.00000,3.867050
360.50000, 
361.00000,3.812881
361.50000, 
362.00000,3.925079
362.50000, 
363.00000,3.887863
363.50000, 
364.00000,3.942047
364.50000, 
365.00000,3.862671
365.50000, 
366.00000,3.746277
366.50000, 
367.00000,3.817963
367.50000, 
368.00000,3.975586
368.50000, 
369.00000,3.985825
369.50000, 
370.00000,3.904678
370.50000, 
371.00000,3.861496
371.50000, 
372.00000,3.688126
372.50000, 
373.00000,3.945770
373.50000, 
374.00000,3.717896
374.50000, 
375.00000,3.758698
375.50000, 
376.00000,3.802414
376.50000, 
377.00000,3.768723
377.50000, 
378.00000,3.816132
378.50000, 
379.00000,3.966721
379.50000, 
380.00000,3.729599
380.50000, 
381.00000,3.586105
381.50000, 
382.00000,3.470291
382.50000, 
383.00000,3.257568
383.50000, 
384.00000,2.980042
384.50000, 
385.00000,2.757111
385.50000, 
386.00000,2.572174
386.50000, 
387.00000,2.392487
387.50000, 
388.00000,2.208328
388.50000, 
389.00000,2.056717
389.50000, 
390.00000,1.925354
390.50000, 
391.00000,1.802216
391.50000, 
392.00000,1.693130
392.50000, 
393.00000,1.593628
393.50000, 
394.00000,1.500015
394.50000, 
395.00000,1.420319
395.50000, 
396.00000,1.347458
396.50000, 
397.00000,1.282562
397.50000, 
398.00000,1.226959
398.50000, 
399.00000,1.177872
399.50000, 
400.00000,1.136292
400.50000, 
401.00000,1.099503
401.50000, 
402.00000,1.068756
402.50000, 
403.00000,1.043411
403.50000, 
404.00000,1.021729
404.50000, 
405.00000,1.004196
405.50000, 
406.00000,0.989853
406.50000, 
407.00000,0.977417
407.50000, 
408.00000,0.967194
408.50000, 
409.00000,0.958664
409.50000, 
410.00000,0.950867
410.50000, 
411.00000,0.944733
411.50000, 
412.00000,0.940018
412.50000, 
413.00000,0.935242
413.50000, 
414.00000,0.931107
414.50000, 
415.00000,0.927490
415.50000, 
416.00000,0.924377
416.50000, 
417.00000,0.921402
417.50000, 
418.00000,0.918701
418.50000, 
419.00000,0.916351
419.50000, 
420.00000,0.914459
420.50000, 
421.00000,0.912247
421.50000, 
422.00000,0.910141
422.50000, 
423.00000,0.908310
423.50000, 
424.00000,0.906677
424.50000, 
425.00000,0.905380
425.50000, 
426.00000,0.903961
426.50000, 
427.00000,0.902649
427.50000, 
428.00000,0.901520
428.50000, 
429.00000,0.900604
429.50000, 
430.00000,0.899994
430.50000, 
431.00000,0.899368
431.50000, 
432.00000,0.898743
432.50000, 
433.00000,0.898193
433.50000, 
434.00000,0.897507
434.50000, 
435.00000,0.896820
435.50000, 
436.00000,0.896194
436.50000, 
437.00000,0.895142
437.50000, 
438.00000,0.894501
438.50000, 
439.00000,0.893616
439.50000, 
440.00000,0.892792
440.50000, 
441.00000,0.891983
441.50000, 
442.00000,0.891159
442.50000, 
443.00000,0.890259
443.50000, 
444.00000,0.889389
444.50000, 
445.00000,0.888687
445.50000, 
446.00000,0.888046
446.50000, 
447.00000,0.887375
447.50000, 
448.00000,0.886780
448.50000, 
449.00000,0.886093
449.50000, 
450.00000,0.885498
450.50000, 
451.00000,0.884888
451.50000, 
452.00000,0.884369
452.50000, 
453.00000,0.883606
453.50000, 
454.00000,0.883163
454.50000, 
455.00000,0.882736
455.50000, 
456.00000,0.882309
456.50000, 
457.00000,0.881912
457.50000, 
458.00000,0.881454
458.50000, 
459.00000,0.881073
459.50000, 
460.00000,0.880814
460.50000, 
461.00000,0.880371
461.50000, 
462.00000,0.880203
462.50000, 
463.00000,0.879974
463.50000, 
464.00000,0.879684
464.50000, 
465.00000,0.879547
465.50000, 
466.00000,0.879517
466.50000, 
467.00000,0.879654
467.50000, 
468.00000,0.879761
468.50000, 
469.00000,0.880096
469.50000, 
470.00000,0.880676
470.50000, 
471.00000,0.881699
471.50000, 
472.00000,0.883636
472.50000, 
473.00000,0.886963
473.50000, 
474.00000,0.888428
474.50000, 
475.00000,0.886444
475.50000, 
476.00000,0.883926
476.50000, 
477.00000,0.880814
477.50000, 
478.00000,0.876816
478.50000, 
479.00000,0.872238
479.50000, 
480.00000,0.866837
480.50000, 
481.00000,0.860687
481.50000, 
482.00000,0.853867
482.50000, 
483.00000,0.846176
483.50000, 
484.00000,0.837601
484.50000, 
485.00000,0.828491
485.50000, 
486.00000,0.819046
486.50000, 
487.00000,0.809387
487.50000, 
488.00000,0.800461
488.50000, 
489.00000,0.792404
489.50000, 
490.00000,0.785431
490.50000, 
491.00000,0.779678
491.50000, 
492.00000,0.775330
492.50000, 
493.00000,0.772018
493.50000, 
494.00000,0.769974
494.50000, 
495.00000,0.768951
495.50000, 
496.00000,0.768829
496.50000, 
497.00000,0.769440
497.50000, 
498.00000,0.770584
498.50000, 
499.00000,0.772018
499.50000, 
500.00000,0.773590
500.50000, 
501.00000,0.775482
501.50000, 
502.00000,0.777451
502.50000, 
503.00000,0.779282
503.50000, 
504.00000,0.781174
504.50000, 
505.00000,0.783020
505.50000, 
506.00000,0.784790
506.50000, 
507.00000,0.786285
507.50000, 
508.00000,0.787735
508.50000, 
509.00000,0.788910
509.50000, 
510.00000,0.790192
510.50000, 
511.00000,0.791245
511.50000, 
512.00000,0.792114
512.50000, 
513.00000,0.792892
513.50000, 
514.00000,0.793533
514.50000, 
515.00000,0.794098
515.50000, 
516.00000,0.794510
516.50000, 
517.00000,0.794754
517.50000, 
518.00000,0.794968
518.50000, 
519.00000,0.795074
519.50000, 
520.00000,0.795059
520.50000, 
521.00000,0.795151
521.50000, 
522.00000,0.795105
522.50000, 
523.00000,0.794861
523.50000, 
524.00000,0.794632
524.50000, 
525.00000,0.794327
525.50000, 
526.00000,0.794052
526.50000, 
527.00000,0.793701
527.50000, 
528.00000,0.793289
528.50000, 
529.00000,0.792862
529.50000, 
530.00000,0.792404
530.50000, 
531.00000,0.791931
531.50000, 
532.00000,0.791489
532.50000, 
533.00000,0.791000
533.50000, 
534.00000,0.790359
534.50000, 
535.00000,0.789841
535.50000, 
536.00000,0.789185
536.50000, 
537.00000,0.788330
537.50000, 
538.00000,0.787689
538.50000, 
539.00000,0.787186
539.50000, 
540.00000,0.786591
540.50000, 
541.00000,0.785980
541.50000, 
542.00000,0.785233
542.50000, 
543.00000,0.784592
543.50000, 
544.00000,0.783981
544.50000, 
545.00000,0.783234
545.50000, 
546.00000,0.782394
546.50000, 
547.00000,0.781540
547.50000, 
548.00000,0.780762
548.50000, 
549.00000,0.779755
549.50000, 
550.00000,0.778702
550.50000, 
551.00000,0.777649
551.50000, 
552.00000,0.776489
552.50000, 
553.00000,0.775284
553.50000, 
554.00000,0.773972
554.50000, 
555.00000,0.772629
555.50000, 
556.00000,0.771072
556.50000, 
557.00000,0.769485
557.50000, 
558.00000,0.767990
558.50000, 
559.00000,0.766266
559.50000, 
560.00000,0.764542
560.50000, 
561.00000,0.762695
561.50000, 
562.00000,0.760849
562.50000, 
563.00000,0.758942
563.50000, 
564.00000,0.757004
564.50000, 
565.00000,0.755005
565.50000, 
566.00000,0.752975
566.50000, 
567.00000,0.750839
567.50000, 
568.00000,0.748734
568.50000, 
569.00000,0.746643
569.50000, 
570.00000,0.744476
570.50000, 
571.00000,0.742416
571.50000, 
572.00000,0.740265
572.50000, 
573.00000,0.738098
573.50000, 
574.00000,0.735947
574.50000, 
575.00000,0.733688
575.50000, 
576.00000,0.731583
576.50000, 
577.00000,0.729401
577.50000, 
578.00000,0.727386
578.50000, 
579.00000,0.725357
579.50000, 
580.00000,0.723373
580.50000, 
581.00000,0.721481
581.50000, 
582.00000,0.719711
582.50000, 
583.00000,0.717926
583.50000, 
584.00000,0.716217
584.50000, 
585.00000,0.714630
585.50000, 
586.00000,0.712997
586.50000, 
587.00000,0.711517
587.50000, 
588.00000,0.710068
588.50000, 
589.00000,0.708694
589.50000, 
590.00000,0.707428
590.50000, 
591.00000,0.706116
591.50000, 
592.00000,0.704819
592.50000, 
593.00000,0.703430
593.50000, 
594.00000,0.702148
594.50000, 
595.00000,0.700699
595.50000, 
596.00000,0.699387
596.50000, 
597.00000,0.697983
597.50000, 
598.00000,0.696442
598.50000, 
599.00000,0.694855
599.50000, 
600.00000,0.693176
600.50000, 
601.00000,0.691391
601.50000, 
602.00000,0.689484
602.50000, 
603.00000,0.687332
603.50000, 
604.00000,0.685181
604.50000, 
605.00000,0.682968
605.50000, 
606.00000,0.680527
606.50000, 
607.00000,0.677902
607.50000, 
608.00000,0.675385
608.50000, 
609.00000,0.672592
609.50000, 
610.00000,0.669724
610.50000, 
611.00000,0.666779
611.50000, 
612.00000,0.663681
612.50000, 
613.00000,0.660599
613.50000, 
614.00000,0.657333
614.50000, 
615.00000,0.654037
615.50000, 
616.00000,0.650757
616.50000, 
617.00000,0.647415
617.50000, 
618.00000,0.643982
618.50000, 
619.00000,0.640320
619.50000, 
620.00000,0.636810
620.50000, 
621.00000,0.633209
621.50000, 
622.00000,0.629532
622.50000, 
623.00000,0.625870
623.50000, 
624.00000,0.622131
624.50000, 
625.00000,0.618515
625.50000, 
626.00000,0.615036
626.50000, 
627.00000,0.611603
627.50000, 
628.00000,0.608337
628.50000, 
629.00000,0.605240
629.50000, 
630.00000,0.602478
630.50000, 
631.00000,0.600082
631.50000, 
632.00000,0.598297
632.50000, 
633.00000,0.597809
633.50000, 
634.00000,0.599686
634.50000, 
635.00000,0.596542
635.50000, 
636.00000,0.585739
636.50000, 
637.00000,0.572891
637.50000, 
638.00000,0.559387
638.50000, 
639.00000,0.544327
639.50000, 
640.00000,0.529007
640.50000, 
641.00000,0.513901
641.50000, 
642.00000,0.499725
642.50000, 
643.00000,0.487518
643.50000, 
644.00000,0.477264
644.50000, 
645.00000,0.469299
645.50000, 
646.00000,0.463608
646.50000, 
647.00000,0.460129
647.50000, 
648.00000,0.458466
648.50000, 
649.00000,0.458191
649.50000, 
650.00000,0.458954
650.50000, 
651.00000,0.460342
651.50000, 
652.00000,0.462250
652.50000, 
653.00000,0.464127
653.50000, 
654.00000,0.466217
654.50000, 
655.00000,0.468246
655.50000, 
656.00000,0.470047
656.50000, 
657.00000,0.471786
657.50000, 
658.00000,0.473419
658.50000, 
659.00000,0.474792
659.50000, 
660.00000,0.476151
660.50000, 
661.00000,0.477188
661.50000, 
662.00000,0.478256
662.50000, 
663.00000,0.479095
663.50000, 
664.00000,0.479721
664.50000, 
665.00000,0.480240
665.50000, 
666.00000,0.480713
666.50000, 
667.00000,0.481232
667.50000, 
668.00000,0.481461
668.50000, 
669.00000,0.481766
669.50000, 
670.00000,0.481964
670.50000, 
671.00000,0.482147
671.50000, 
672.00000,0.482117
672.50000, 
673.00000,0.482178
673.50000, 
674.00000,0.481949
674.50000, 
675.00000,0.481873
675.50000, 
676.00000,0.481583
676.50000, 
677.00000,0.481415
677.50000, 
678.00000,0.481079
678.50000, 
679.00000,0.480820
679.50000, 
680.00000,0.480286
680.50000, 
681.00000,0.479980
681.50000, 
682.00000,0.479385
682.50000, 
683.00000,0.479141
683.50000, 
684.00000,0.478653
684.50000, 
685.00000,0.478241
685.50000, 
686.00000,0.477554
686.50000, 
687.00000,0.477264
687.50000, 
688.00000,0.476654
688.50000, 
689.00000,0.476227
689.50000, 
690.00000,0.475525
690.50000, 
691.00000,0.475098
691.50000, 
692.00000,0.474487
692.50000, 
693.00000,0.473953
693.50000, 
694.00000,0.473297
694.50000, 
695.00000,0.472687
695.50000, 
696.00000,0.472046
696.50000, 
697.00000,0.471405
697.50000, 
698.00000,0.470688
698.50000, 
699.00000,0.469940
699.50000, 
700.00000,0.469269
700.50000, 
701.00000,0.468430
701.50000, 
702.00000,0.467819
702.50000, 
703.00000,0.467087
703.50000, 
704.00000,0.466415
704.50000, 
705.00000,0.465454
705.50000, 
706.00000,0.464905
706.50000, 
707.00000,0.463837
707.50000, 
708.00000,0.463181
708.50000, 
709.00000,0.462082
709.50000, 
710.00000,0.461365
710.50000, 
711.00000,0.460266
711.50000, 
712.00000,0.459229
712.50000, 
713.00000,0.458267
713.50000, 
714.00000,0.457047
714.50000, 
715.00000,0.456055
715.50000, 
716.00000,0.454666
716.50000, 
717.00000,0.453842
717.50000, 
718.00000,0.452301
718.50000, 
719.00000,0.451355
719.50000, 
720.00000,0.450012
720.50000, 
721.00000,0.448883
721.50000, 
722.00000,0.447632
722.50000, 
723.00000,0.446396
723.50000, 
724.00000,0.445435
724.50000, 
725.00000,0.444046
725.50000, 
726.00000,0.443192
726.50000, 
727.00000,0.441818
727.50000, 
728.00000,0.440994
728.50000, 
729.00000,0.439621
729.50000, 
730.00000,0.438629
730.50000, 
731.00000,0.437576
731.50000, 
732.00000,0.436432
732.50000, 
733.00000,0.435730
733.50000, 
734.00000,0.434326
734.50000, 
735.00000,0.433624
735.50000, 
736.00000,0.432419
736.50000, 
737.00000,0.431458
737.50000, 
738.00000,0.430588
738.50000, 
739.00000,0.429413
739.50000, 
740.00000,0.428848
740.50000, 
741.00000,0.427490
741.50000, 
742.00000,0.426682
742.50000, 
743.00000,0.425674
743.50000, 
744.00000,0.424545
744.50000, 
745.00000,0.423874
745.50000, 
746.00000,0.422363
746.50000, 
747.00000,0.421585
747.50000, 
748.00000,0.420273
748.50000, 
749.00000,0.419373
749.50000, 
750.00000,0.418564
750.50000, 
751.00000,0.417252
751.50000, 
752.00000,0.416779
752.50000, 
753.00000,0.415466
753.50000, 
754.00000,0.414764
754.50000, 
755.00000,0.413925
755.50000, 
756.00000,0.412735
756.50000, 
757.00000,0.412155
757.50000, 
758.00000,0.411041
758.50000, 
759.00000,0.410278
759.50000, 
760.00000,0.409744
760.50000, 
761.00000,0.408478
761.50000, 
762.00000,0.407883
762.50000, 
763.00000,0.406937
763.50000, 
764.00000,0.405807
764.50000, 
765.00000,0.405350
765.50000, 
766.00000,0.404007
766.50000, 
767.00000,0.403519
767.50000, 
768.00000,0.402435
768.50000, 
769.00000,0.401550
769.50000, 
770.00000,0.401138
770.50000, 
771.00000,0.399780
771.50000, 
772.00000,0.399338
772.50000, 
773.00000,0.398300
773.50000, 
774.00000,0.397354
774.50000, 
775.00000,0.396851
775.50000, 
776.00000,0.395721
776.50000, 
777.00000,0.395096
777.50000, 
778.00000,0.394531
778.50000, 
779.00000,0.393219
779.50000, 
780.00000,0.392929
780.50000, 
781.00000,0.391968
781.50000, 
782.00000,0.391006
782.50000, 
783.00000,0.390656
783.50000, 
784.00000,0.389496
784.50000, 
785.00000,0.388916
785.50000, 
786.00000,0.388275
786.50000, 
787.00000,0.387115
787.50000, 
788.00000,0.386627
788.50000, 
789.00000,0.385803
789.50000, 
790.00000,0.384705
790.50000, 
791.00000,0.384476
791.50000, 
792.00000,0.383163
792.50000, 
793.00000,0.382568
793.50000, 
794.00000,0.381805
794.50000, 
795.00000,0.380722
795.50000, 
796.00000,0.380173
796.50000, 
797.00000,0.379410
797.50000, 
798.00000,0.378174
798.50000, 
799.00000,0.377960
799.50000, 
800.00000,0.376755
800.50000, 
801.00000,0.375870
801.50000, 
802.00000,0.375397
802.50000, 
803.00000,0.374207
803.50000, 
804.00000,0.373245
804.50000, 
805.00000,0.373001
805.50000, 
806.00000,0.371506
806.50000, 
807.00000,0.370773
807.50000, 
808.00000,0.369980
808.50000, 
809.00000,0.368759
809.50000, 
810.00000,0.367813
810.50000, 
811.00000,0.367294
811.50000, 
812.00000,0.365616
812.50000, 
813.00000,0.365036
813.50000, 
814.00000,0.363724
814.50000, 
815.00000,0.362442
815.50000, 
816.00000,0.361572
816.50000, 
817.00000,0.360611
817.50000, 
818.00000,0.358948
818.50000, 
819.00000,0.358261
819.50000, 
820.00000,0.356598
820.50000, 
821.00000,0.355515
821.50000, 
822.00000,0.354568
822.50000, 
823.00000,0.353378
823.50000, 
824.00000,0.351685
824.50000, 
825.00000,0.350967
825.50000, 
826.00000,0.349380
826.50000, 
827.00000,0.347855
827.50000, 
828.00000,0.347031
828.50000, 
829.00000,0.345245
829.50000, 
830.00000,0.343796
830.50000, 
831.00000,0.342667
831.50000, 
832.00000,0.341324
832.50000, 
833.00000,0.339279
833.50000, 
834.00000,0.338501
834.50000, 
835.00000,0.336533
835.50000, 
836.00000,0.334869
836.50000, 
837.00000,0.333633
837.50000, 
838.00000,0.331879
838.50000, 
839.00000,0.329880
839.50000, 
840.00000,0.328842
840.50000, 
841.00000,0.327164
841.50000, 
842.00000,0.325150
842.50000, 
843.00000,0.324066
843.50000, 
844.00000,0.322128
844.50000, 
845.00000,0.320328
845.50000, 
846.00000,0.318878
846.50000, 
847.00000,0.317520
847.50000, 
848.00000,0.315308
848.50000, 
849.00000,0.314026
849.50000, 
850.00000,0.312546
850.50000, 
851.00000,0.310455
851.50000, 
852.00000,0.309021
852.50000, 
853.00000,0.307465
853.50000, 
854.00000,0.305664
854.50000, 
855.00000,0.303696
855.50000, 
856.00000,0.302536
856.50000, 
857.00000,0.300400
857.50000, 
858.00000,0.298538
858.50000, 
859.00000,0.297211
859.50000, 
860.00000,0.295242
860.50000, 
861.00000,0.293396
861.50000, 
862.00000,0.291809
862.50000, 
863.00000,0.290436
863.50000, 
864.00000,0.288239
864.50000, 
865.00000,0.286957
865.50000, 
866.00000,0.285416
866.50000, 
867.00000,0.283646
867.50000, 
868.00000,0.282166
868.50000, 
869.00000,0.280701
869.50000, 
870.00000,0.279282
870.50000, 
871.00000,0.277420
871.50000, 
872.00000,0.276306
872.50000, 
873.00000,0.274796
873.50000, 
874.00000,0.273087
874.50000, 
875.00000,0.271927
875.50000, 
876.00000,0.270370
876.50000, 
877.00000,0.268997
877.50000, 
878.00000,0.267487
878.50000, 
879.00000,0.266373
879.50000, 
880.00000,0.264771
880.50000, 
881.00000,0.263168
881.50000, 
882.00000,0.262192
882.50000, 
883.00000,0.260452
883.50000, 
884.00000,0.259171
884.50000, 
885.00000,0.258072
885.50000, 
886.00000,0.256882
886.50000, 
887.00000,0.255569
887.50000, 
888.00000,0.254272
888.50000, 
889.00000,0.253494
889.50000, 
890.00000,0.252029
890.50000, 
891.00000,0.250977
891.50000, 
892.00000,0.250259
892.50000, 
893.00000,0.249146
893.50000, 
894.00000,0.248291
894.50000, 
895.00000,0.247177
895.50000, 
896.00000,0.246338
896.50000, 
897.00000,0.245682
897.50000, 
898.00000,0.244507
898.50000, 
899.00000,0.243866
899.50000, 
900.00000,0.243637
900.50000, 
901.00000, 
901.50000, 
902.00000, 
902.50000, 
903.00000, 
903.50000, 
904.00000, 
904.50000, 
905.00000, 
905.50000, 
906.00000, 
906.50000, 
907.00000, 
907.50000, 
908.00000, 
908.50000, 
909.00000, 
909.50000, 
910.00000, 
910.50000, 
911.00000, 
911.50000, 
912.00000, 
912.50000, 
913.00000, 
913.50000, 
914.00000, 
914.50000, 
915.00000, 
915.50000, 
916.00000, 
916.50000, 
917.00000, 
917.50000, 
918.00000, 
918.50000, 
919.00000, 
919.50000, 
920.00000, 
920.50000, 
921.00000, 
921.50000, 
922.00000, 
922.50000, 
923.00000, 
923.50000, 
924.00000, 
924.50000, 
925.00000, 
925.50000, 
926.00000, 
926.50000, 
927.00000, 
927.50000, 
928.00000, 
928.50000, 
929.00000, 
929.50000, 
930.00000, 
930.50000, 
931.00000, 
931.50000, 
932.00000, 
932.50000, 
933.00000, 
933.50000, 
934.00000, 
934.50000, 
935.00000, 
935.50000, 
936.00000, 
936.50000, 
937.00000, 
937.50000, 
938.00000, 
938.50000, 
939.00000, 
939.50000, 
940.00000, 
940.50000, 
941.00000, 
941.50000, 
942.00000, 
942.50000, 
943.00000, 
943.50000, 
944.00000, 
944.50000, 
945.00000, 
945.50000, 
946.00000, 
946.50000, 
947.00000, 
947.50000, 
948.00000, 
948.50000, 
949.00000, 
949.50000, 
950.00000, 
950.50000, 
951.00000, 
951.50000, 
952.00000, 
952.50000, 
953.00000, 
953.50000, 
954.00000, 
954.50000, 
955.00000, 
955.50000, 
956.00000, 
956.50000, 
957.00000, 
957.50000, 
958.00000, 
958.50000, 
959.00000, 
959.50000, 
960.00000, 
960.50000, 
961.00000, 
961.50000, 
962.00000, 
962.50000, 
963.00000, 
963.50000, 
964.00000, 
964.50000, 
965.00000, 
965.50000, 
966.00000, 
966.50000, 
967.00000, 
967.50000, 
968.00000, 
968.50000, 
969.00000, 
969.50000, 
970.00000, 
970.50000, 
971.00000, 
971.50000, 
972.00000, 
972.50000, 
973.00000, 
973.50000, 
974.00000, 
974.50000, 
975.00000, 
975.50000, 
976.00000, 
976.50000, 
977.00000, 
977.50000, 
978.00000, 
978.50000, 
979.00000, 
979.50000, 
980.00000, 
980.50000, 
981.00000, 
981.50000, 
982.00000, 
982.50000, 
983.00000, 
983.50000, 
984.00000, 
984.50000, 
985.00000, 
985.50000, 
986.00000, 
986.50000, 
987.00000, 
987.50000, 
988.00000, 
988.50000, 
989.00000, 
989.50000, 
990.00000, 
990.50000, 
991.00000, 
991.50000, 
992.00000, 
992.50000, 
993.00000, 
993.50000, 
994.00000, 
994.50000, 
995.00000, 
995.50000, 
996.00000, 
996.50000, 
997.00000, 
997.50000, 
998.00000, 
998.50000, 
999.00000, 
999.50000, 
1000.00000, 
1000.50000, 
1001.00000, 
1001.50000, 
1002.00000, 
1002.50000, 
1003.00000, 
1003.50000, 
1004.00000, 
1004.50000, 
1005.00000, 
1005.50000, 
1006.00000, 
1006.50000, 
1007.00000, 
1007.50000, 
1008.00000, 
1008.50000, 
1009.00000, 
1009.50000, 
1010.00000, 
1010.50000, 
1011.00000, 
1011.50000, 
1012.00000, 
1012.50000, 
1013.00000, 
1013.50000, 
1014.00000, 
1014.50000, 
1015.00000, 
1015.50000, 
1016.00000, 
1016.50000, 
1017.00000, 
1017.50000, 
1018.00000, 
1018.50000, 
1019.00000, 
1019.50000, 
1020.00000, 
1020.50000, 
1021.00000, 
1021.50000, 
1022.00000, 
1022.50000, 
1023.00000, 
1023.50000, 
1024.00000, 
1024.50000, 
1025.00000, 
1025.50000, 
1026.00000, 
1026.50000, 
1027.00000, 
1027.50000, 
1028.00000, 
1028.50000, 
1029.00000, 
1029.50000, 
1030.00000, 
1030.50000, 
1031.00000, 
1031.50000, 
1032.00000, 
1032.50000, 
1033.00000, 
1033.50000, 
1034.00000, 
1034.50000, 
1035.00000, 
1035.50000, 
1036.00000, 
1036.50000, 
1037.00000, 
1037.50000, 
1038.00000, 
1038.50000, 
1039.00000, 
1039.50000, 
1040.00000, 
1040.50000, 
1041.00000, 
1041.50000, 
1042.00000, 
1042.50000, 
1043.00000, 
1043.50000, 
1044.00000, 
1044.50000, 
1045.00000, 
1045.50000, 
1046.00000, 
1046.50000, 
1047.00000, 
1047.50000, 
1048.00000, 
1048.50000, 
1049.00000, 
1049.50000, 
1050.00000, 
1050.50000, 
1051.00000, 
1051.50000, 
1052.00000, 
1052.50000, 
1053.00000, 
1053.50000, 
1054.00000, 
1054.50000, 
1055.00000, 
1055.50000, 
1056.00000, 
1056.50000, 
1057.00000, 
1057.50000, 
1058.00000, 
1058.50000, 
1059.00000, 
1059.50000, 
1060.00000, 
1060.50000, 
1061.00000, 
1061.50000, 
1062.00000, 
1062.50000, 
1063.00000, 
1063.50000, 
1064.00000, 
1064.50000, 
1065.00000, 
1065.50000, 
1066.00000, 
1066.50000, 
1067.00000, 
1067.50000, 
1068.00000, 
1068.50000, 
1069.00000, 
1069.50000, 
1070.00000, 
1070.50000, 
1071.00000, 
1071.50000, 
1072.00000, 
1072.50000, 
1073.00000, 
1073.50000, 
1074.00000, 
1074.50000, 
1075.00000, 
1075.50000, 
1076.00000, 
1076.50000, 
1077.00000, 
1077.50000, 
1078.00000, 
1078.50000, 
1079.00000, 
1079.50000, 
1080.00000, 
1080.50000, 
1081.00000, 
1081.50000, 
1082.00000, 
1082.50000, 
1083.00000, 
1083.50000, 
1084.00000, 
1084.50000, 
1085.00000, 
1085.50000, 
1086.00000, 
1086.50000, 
1087.00000, 
1087.50000, 
1088.00000, 
1088.50000, 
1089.00000, 
1089.50000, 
1090.00000, 
1090.50000, 
1091.00000, 
1091.50000, 
1092.00000, 
1092.50000, 
1093.00000, 
1093.50000, 
1094.00000, 
1094.50000, 
1095.00000, 
1095.50000, 
1096.00000, 
1096.50000, 
1097.00000, 
1097.50000, 
1098.00000, 
1098.50000, 
1099.00000, 
1099.50000, 
1100.00000, 
