"0%H - RawData"
"Wavelength nm.","Abs."
300.00000,3.805862
300.50000, 
301.00000,3.996811
301.50000, 
302.00000,3.979034
302.50000, 
303.00000,3.854965
303.50000, 
304.00000,4.000000
304.50000, 
305.00000,3.965485
305.50000, 
306.00000,3.981628
306.50000, 
307.00000,4.000000
307.50000, 
308.00000,3.975769
308.50000, 
309.00000,3.988861
309.50000, 
310.00000,4.000000
310.50000, 
311.00000,4.000000
311.50000, 
312.00000,3.932968
312.50000, 
313.00000,3.921387
313.50000, 
314.00000,3.985168
314.50000, 
315.00000,3.973969
315.50000, 
316.00000,3.967331
316.50000, 
317.00000,3.936539
317.50000, 
318.00000,3.961945
318.50000, 
319.00000,3.890289
319.50000, 
320.00000,3.910477
320.50000, 
321.00000,3.924515
321.50000, 
322.00000,3.944351
322.50000, 
323.00000,3.971527
323.50000, 
324.00000,3.994934
324.50000, 
325.00000,3.856293
325.50000, 
326.00000,3.957947
326.50000, 
327.00000,3.994202
327.50000, 
328.00000,3.967239
328.50000, 
329.00000,3.939346
329.50000, 
330.00000,3.961060
330.50000, 
331.00000,3.967926
331.50000, 
332.00000,3.852692
332.50000, 
333.00000,3.872040
333.50000, 
334.00000,4.000000
334.50000, 
335.00000,3.903717
335.50000, 
336.00000,3.925583
336.50000, 
337.00000,3.990494
337.50000, 
338.00000,3.862488
338.50000, 
339.00000,3.990021
339.50000, 
340.00000,3.962509
340.50000, 
341.00000,3.877487
341.50000, 
342.00000,3.991241
342.50000, 
343.00000,3.985168
343.50000, 
344.00000,3.881378
344.50000, 
345.00000,3.863419
345.50000, 
346.00000,4.000000
346.50000, 
347.00000,3.917404
347.50000, 
348.00000,3.936707
348.50000, 
349.00000,3.938477
349.50000, 
350.00000,4.000000
350.50000, 
351.00000,3.890564
351.50000, 
352.00000,3.965988
352.50000, 
353.00000,3.862534
353.50000, 
354.00000,3.970230
354.50000, 
355.00000,3.861984
355.50000, 
356.00000,3.860428
356.50000, 
357.00000,3.951385
357.50000, 
358.00000,3.972931
358.50000, 
359.00000,3.929794
359.50000, 
360.00000,3.912308
360.50000, 
361.00000,3.905731
361.50000, 
362.00000,3.942688
362.50000, 
363.00000,3.955811
363.50000, 
364.00000,3.921860
364.50000, 
365.00000,3.814026
365.50000, 
366.00000,3.647827
366.50000, 
367.00000,3.921295
367.50000, 
368.00000,3.893127
368.50000, 
369.00000,3.921265
369.50000, 
370.00000,3.879837
370.50000, 
371.00000,3.805969
371.50000, 
372.00000,3.896362
372.50000, 
373.00000,4.000000
373.50000, 
374.00000,3.970688
374.50000, 
375.00000,3.921356
375.50000, 
376.00000,3.931824
376.50000, 
377.00000,3.886826
377.50000, 
378.00000,3.978912
378.50000, 
379.00000,3.790054
379.50000, 
380.00000,3.854019
380.50000, 
381.00000,3.822098
381.50000, 
382.00000,3.522827
382.50000, 
383.00000,3.374557
383.50000, 
384.00000,3.050369
384.50000, 
385.00000,2.898529
385.50000, 
386.00000,2.621933
386.50000, 
387.00000,2.415573
387.50000, 
388.00000,2.242294
388.50000, 
389.00000,2.090134
389.50000, 
390.00000,1.950378
390.50000, 
391.00000,1.822952
391.50000, 
392.00000,1.714935
392.50000, 
393.00000,1.615402
393.50000, 
394.00000,1.522583
394.50000, 
395.00000,1.441833
395.50000, 
396.00000,1.366180
396.50000, 
397.00000,1.300705
397.50000, 
398.00000,1.244965
398.50000, 
399.00000,1.195847
399.50000, 
400.00000,1.153198
400.50000, 
401.00000,1.116501
401.50000, 
402.00000,1.085251
402.50000, 
403.00000,1.059875
403.50000, 
404.00000,1.037689
404.50000, 
405.00000,1.020081
405.50000, 
406.00000,1.005310
406.50000, 
407.00000,0.992676
407.50000, 
408.00000,0.982529
408.50000, 
409.00000,0.974030
409.50000, 
410.00000,0.966461
410.50000, 
411.00000,0.960617
411.50000, 
412.00000,0.955688
412.50000, 
413.00000,0.950882
413.50000, 
414.00000,0.947006
414.50000, 
415.00000,0.943542
415.50000, 
416.00000,0.940979
416.50000, 
417.00000,0.938675
417.50000, 
418.00000,0.936081
418.50000, 
419.00000,0.933884
419.50000, 
420.00000,0.931763
420.50000, 
421.00000,0.929596
421.50000, 
422.00000,0.928055
422.50000, 
423.00000,0.926315
423.50000, 
424.00000,0.924759
424.50000, 
425.00000,0.923355
425.50000, 
426.00000,0.922150
426.50000, 
427.00000,0.921326
427.50000, 
428.00000,0.920502
428.50000, 
429.00000,0.919785
429.50000, 
430.00000,0.919174
430.50000, 
431.00000,0.918869
431.50000, 
432.00000,0.918594
432.50000, 
433.00000,0.918228
433.50000, 
434.00000,0.917908
434.50000, 
435.00000,0.917404
435.50000, 
436.00000,0.917206
436.50000, 
437.00000,0.916504
437.50000, 
438.00000,0.915726
438.50000, 
439.00000,0.915146
439.50000, 
440.00000,0.914429
440.50000, 
441.00000,0.913681
441.50000, 
442.00000,0.912949
442.50000, 
443.00000,0.912308
443.50000, 
444.00000,0.911697
444.50000, 
445.00000,0.911163
445.50000, 
446.00000,0.910660
446.50000, 
447.00000,0.910233
447.50000, 
448.00000,0.909729
448.50000, 
449.00000,0.909241
449.50000, 
450.00000,0.908783
450.50000, 
451.00000,0.908478
451.50000, 
452.00000,0.908035
452.50000, 
453.00000,0.907806
453.50000, 
454.00000,0.907593
454.50000, 
455.00000,0.907379
455.50000, 
456.00000,0.907104
456.50000, 
457.00000,0.906906
457.50000, 
458.00000,0.906738
458.50000, 
459.00000,0.906525
459.50000, 
460.00000,0.906372
460.50000, 
461.00000,0.906296
461.50000, 
462.00000,0.906311
462.50000, 
463.00000,0.906235
463.50000, 
464.00000,0.906265
464.50000, 
465.00000,0.906342
465.50000, 
466.00000,0.906494
466.50000, 
467.00000,0.906601
467.50000, 
468.00000,0.907150
468.50000, 
469.00000,0.907547
469.50000, 
470.00000,0.908188
470.50000, 
471.00000,0.909332
471.50000, 
472.00000,0.911682
472.50000, 
473.00000,0.915161
473.50000, 
474.00000,0.916290
474.50000, 
475.00000,0.914444
475.50000, 
476.00000,0.911926
476.50000, 
477.00000,0.908661
477.50000, 
478.00000,0.904999
478.50000, 
479.00000,0.900497
479.50000, 
480.00000,0.895157
480.50000, 
481.00000,0.888809
481.50000, 
482.00000,0.881927
482.50000, 
483.00000,0.874039
483.50000, 
484.00000,0.865204
484.50000, 
485.00000,0.856155
485.50000, 
486.00000,0.846786
486.50000, 
487.00000,0.836990
487.50000, 
488.00000,0.827835
488.50000, 
489.00000,0.819611
489.50000, 
490.00000,0.812485
490.50000, 
491.00000,0.806442
491.50000, 
492.00000,0.801849
492.50000, 
493.00000,0.798508
493.50000, 
494.00000,0.796219
494.50000, 
495.00000,0.795120
495.50000, 
496.00000,0.794891
496.50000, 
497.00000,0.795334
497.50000, 
498.00000,0.796249
498.50000, 
499.00000,0.797653
499.50000, 
500.00000,0.799026
500.50000, 
501.00000,0.800598
501.50000, 
502.00000,0.802399
502.50000, 
503.00000,0.804031
503.50000, 
504.00000,0.805618
504.50000, 
505.00000,0.807129
505.50000, 
506.00000,0.808472
506.50000, 
507.00000,0.809631
507.50000, 
508.00000,0.810822
508.50000, 
509.00000,0.811707
509.50000, 
510.00000,0.812515
510.50000, 
511.00000,0.813004
511.50000, 
512.00000,0.813477
512.50000, 
513.00000,0.813843
513.50000, 
514.00000,0.814056
514.50000, 
515.00000,0.814087
515.50000, 
516.00000,0.814072
516.50000, 
517.00000,0.813934
517.50000, 
518.00000,0.813644
518.50000, 
519.00000,0.813156
519.50000, 
520.00000,0.812744
520.50000, 
521.00000,0.812256
521.50000, 
522.00000,0.811676
522.50000, 
523.00000,0.810989
523.50000, 
524.00000,0.810272
524.50000, 
525.00000,0.809509
525.50000, 
526.00000,0.808670
526.50000, 
527.00000,0.807755
527.50000, 
528.00000,0.806824
528.50000, 
529.00000,0.805878
529.50000, 
530.00000,0.804916
530.50000, 
531.00000,0.803940
531.50000, 
532.00000,0.802994
532.50000, 
533.00000,0.801987
533.50000, 
534.00000,0.800842
534.50000, 
535.00000,0.799911
535.50000, 
536.00000,0.798447
536.50000, 
537.00000,0.796600
537.50000, 
538.00000,0.795624
538.50000, 
539.00000,0.794647
539.50000, 
540.00000,0.793671
540.50000, 
541.00000,0.792709
541.50000, 
542.00000,0.791672
542.50000, 
543.00000,0.790558
543.50000, 
544.00000,0.789368
544.50000, 
545.00000,0.788193
545.50000, 
546.00000,0.786911
546.50000, 
547.00000,0.785599
547.50000, 
548.00000,0.784302
548.50000, 
549.00000,0.782974
549.50000, 
550.00000,0.781403
550.50000, 
551.00000,0.779846
551.50000, 
552.00000,0.778122
552.50000, 
553.00000,0.776306
553.50000, 
554.00000,0.774399
554.50000, 
555.00000,0.772430
555.50000, 
556.00000,0.770340
556.50000, 
557.00000,0.768188
557.50000, 
558.00000,0.765869
558.50000, 
559.00000,0.763443
559.50000, 
560.00000,0.761108
560.50000, 
561.00000,0.758591
561.50000, 
562.00000,0.756104
562.50000, 
563.00000,0.753723
563.50000, 
564.00000,0.751022
564.50000, 
565.00000,0.748260
565.50000, 
566.00000,0.745544
566.50000, 
567.00000,0.742920
567.50000, 
568.00000,0.740112
568.50000, 
569.00000,0.737259
569.50000, 
570.00000,0.734497
570.50000, 
571.00000,0.731827
571.50000, 
572.00000,0.729065
572.50000, 
573.00000,0.726334
573.50000, 
574.00000,0.723587
574.50000, 
575.00000,0.720825
575.50000, 
576.00000,0.718124
576.50000, 
577.00000,0.715469
577.50000, 
578.00000,0.712921
578.50000, 
579.00000,0.710419
579.50000, 
580.00000,0.708023
580.50000, 
581.00000,0.705658
581.50000, 
582.00000,0.703491
582.50000, 
583.00000,0.701492
583.50000, 
584.00000,0.699356
584.50000, 
585.00000,0.697418
585.50000, 
586.00000,0.695572
586.50000, 
587.00000,0.693756
587.50000, 
588.00000,0.692062
588.50000, 
589.00000,0.690475
589.50000, 
590.00000,0.688904
590.50000, 
591.00000,0.687378
591.50000, 
592.00000,0.685959
592.50000, 
593.00000,0.684387
593.50000, 
594.00000,0.682755
594.50000, 
595.00000,0.681091
595.50000, 
596.00000,0.679535
596.50000, 
597.00000,0.677841
597.50000, 
598.00000,0.676147
598.50000, 
599.00000,0.674225
599.50000, 
600.00000,0.672211
600.50000, 
601.00000,0.670120
601.50000, 
602.00000,0.667816
602.50000, 
603.00000,0.665359
603.50000, 
604.00000,0.662689
604.50000, 
605.00000,0.660004
605.50000, 
606.00000,0.657013
606.50000, 
607.00000,0.653992
607.50000, 
608.00000,0.650955
608.50000, 
609.00000,0.647797
609.50000, 
610.00000,0.644379
610.50000, 
611.00000,0.640991
611.50000, 
612.00000,0.637329
612.50000, 
613.00000,0.633514
613.50000, 
614.00000,0.629684
614.50000, 
615.00000,0.625824
615.50000, 
616.00000,0.621887
616.50000, 
617.00000,0.617981
617.50000, 
618.00000,0.613922
618.50000, 
619.00000,0.609802
619.50000, 
620.00000,0.605728
620.50000, 
621.00000,0.601517
621.50000, 
622.00000,0.597214
622.50000, 
623.00000,0.592987
623.50000, 
624.00000,0.588715
624.50000, 
625.00000,0.584534
625.50000, 
626.00000,0.580460
626.50000, 
627.00000,0.576462
627.50000, 
628.00000,0.572495
628.50000, 
629.00000,0.568863
629.50000, 
630.00000,0.565552
630.50000, 
631.00000,0.562668
631.50000, 
632.00000,0.560379
632.50000, 
633.00000,0.559479
633.50000, 
634.00000,0.560837
634.50000, 
635.00000,0.557541
635.50000, 
636.00000,0.546585
636.50000, 
637.00000,0.533493
637.50000, 
638.00000,0.519608
638.50000, 
639.00000,0.504105
639.50000, 
640.00000,0.488556
640.50000, 
641.00000,0.473129
641.50000, 
642.00000,0.458389
642.50000, 
643.00000,0.445419
643.50000, 
644.00000,0.434830
644.50000, 
645.00000,0.426758
645.50000, 
646.00000,0.420807
646.50000, 
647.00000,0.417145
647.50000, 
648.00000,0.415115
648.50000, 
649.00000,0.414749
649.50000, 
650.00000,0.415268
650.50000, 
651.00000,0.416611
651.50000, 
652.00000,0.418137
652.50000, 
653.00000,0.420013
653.50000, 
654.00000,0.421951
654.50000, 
655.00000,0.423843
655.50000, 
656.00000,0.425568
656.50000, 
657.00000,0.427155
657.50000, 
658.00000,0.428650
658.50000, 
659.00000,0.429916
659.50000, 
660.00000,0.431198
660.50000, 
661.00000,0.432083
661.50000, 
662.00000,0.433105
662.50000, 
663.00000,0.433716
663.50000, 
664.00000,0.434479
664.50000, 
665.00000,0.434891
665.50000, 
666.00000,0.435486
666.50000, 
667.00000,0.435638
667.50000, 
668.00000,0.436050
668.50000, 
669.00000,0.436142
669.50000, 
670.00000,0.436432
670.50000, 
671.00000,0.436356
671.50000, 
672.00000,0.436493
672.50000, 
673.00000,0.436417
673.50000, 
674.00000,0.436340
674.50000, 
675.00000,0.436127
675.50000, 
676.00000,0.435883
676.50000, 
677.00000,0.435623
677.50000, 
678.00000,0.435410
678.50000, 
679.00000,0.434952
679.50000, 
680.00000,0.434601
680.50000, 
681.00000,0.434204
681.50000, 
682.00000,0.433777
682.50000, 
683.00000,0.433304
683.50000, 
684.00000,0.432861
684.50000, 
685.00000,0.432297
685.50000, 
686.00000,0.431915
686.50000, 
687.00000,0.431320
687.50000, 
688.00000,0.430878
688.50000, 
689.00000,0.430267
689.50000, 
690.00000,0.429825
690.50000, 
691.00000,0.429077
691.50000, 
692.00000,0.428680
692.50000, 
693.00000,0.427933
693.50000, 
694.00000,0.427582
694.50000, 
695.00000,0.426697
695.50000, 
696.00000,0.426300
696.50000, 
697.00000,0.425415
697.50000, 
698.00000,0.424957
698.50000, 
699.00000,0.424103
699.50000, 
700.00000,0.423569
700.50000, 
701.00000,0.422623
701.50000, 
702.00000,0.422165
702.50000, 
703.00000,0.421249
703.50000, 
704.00000,0.420700
704.50000, 
705.00000,0.419754
705.50000, 
706.00000,0.418976
706.50000, 
707.00000,0.418167
707.50000, 
708.00000,0.417252
708.50000, 
709.00000,0.416458
709.50000, 
710.00000,0.415314
710.50000, 
711.00000,0.414520
711.50000, 
712.00000,0.413132
712.50000, 
713.00000,0.412369
713.50000, 
714.00000,0.411026
714.50000, 
715.00000,0.410095
715.50000, 
716.00000,0.408829
716.50000, 
717.00000,0.407562
717.50000, 
718.00000,0.406372
718.50000, 
719.00000,0.404984
719.50000, 
720.00000,0.404053
720.50000, 
721.00000,0.402603
721.50000, 
722.00000,0.401611
722.50000, 
723.00000,0.400192
723.50000, 
724.00000,0.399216
724.50000, 
725.00000,0.397812
725.50000, 
726.00000,0.396729
726.50000, 
727.00000,0.395615
727.50000, 
728.00000,0.394333
728.50000, 
729.00000,0.393478
729.50000, 
730.00000,0.392029
730.50000, 
731.00000,0.391235
731.50000, 
732.00000,0.389954
732.50000, 
733.00000,0.389069
733.50000, 
734.00000,0.388107
734.50000, 
735.00000,0.386841
735.50000, 
736.00000,0.386215
736.50000, 
737.00000,0.384918
737.50000, 
738.00000,0.384125
738.50000, 
739.00000,0.383072
739.50000, 
740.00000,0.381927
740.50000, 
741.00000,0.381210
741.50000, 
742.00000,0.379868
742.50000, 
743.00000,0.379257
743.50000, 
744.00000,0.378036
744.50000, 
745.00000,0.377121
745.50000, 
746.00000,0.376114
746.50000, 
747.00000,0.374832
747.50000, 
748.00000,0.374023
748.50000, 
749.00000,0.372742
749.50000, 
750.00000,0.372116
750.50000, 
751.00000,0.371002
751.50000, 
752.00000,0.369949
752.50000, 
753.00000,0.369293
753.50000, 
754.00000,0.368042
754.50000, 
755.00000,0.367493
755.50000, 
756.00000,0.366440
756.50000, 
757.00000,0.365417
757.50000, 
758.00000,0.364838
758.50000, 
759.00000,0.363586
759.50000, 
760.00000,0.363190
760.50000, 
761.00000,0.362213
761.50000, 
762.00000,0.361160
762.50000, 
763.00000,0.360641
763.50000, 
764.00000,0.359451
764.50000, 
765.00000,0.358734
765.50000, 
766.00000,0.357803
766.50000, 
767.00000,0.356842
767.50000, 
768.00000,0.356293
768.50000, 
769.00000,0.355209
769.50000, 
770.00000,0.354477
770.50000, 
771.00000,0.353699
771.50000, 
772.00000,0.352615
772.50000, 
773.00000,0.352051
773.50000, 
774.00000,0.350983
774.50000, 
775.00000,0.350296
775.50000, 
776.00000,0.349625
776.50000, 
777.00000,0.348541
777.50000, 
778.00000,0.348099
778.50000, 
779.00000,0.347092
779.50000, 
780.00000,0.346268
780.50000, 
781.00000,0.345734
781.50000, 
782.00000,0.344818
782.50000, 
783.00000,0.344040
783.50000, 
784.00000,0.343475
784.50000, 
785.00000,0.342316
785.50000, 
786.00000,0.341904
786.50000, 
787.00000,0.340958
787.50000, 
788.00000,0.340103
788.50000, 
789.00000,0.339539
789.50000, 
790.00000,0.338547
790.50000, 
791.00000,0.337830
791.50000, 
792.00000,0.337143
792.50000, 
793.00000,0.336060
793.50000, 
794.00000,0.335526
794.50000, 
795.00000,0.334656
795.50000, 
796.00000,0.333679
796.50000, 
797.00000,0.333237
797.50000, 
798.00000,0.332047
798.50000, 
799.00000,0.331314
799.50000, 
800.00000,0.330673
800.50000, 
801.00000,0.329666
801.50000, 
802.00000,0.328842
802.50000, 
803.00000,0.328232
803.50000, 
804.00000,0.326981
804.50000, 
805.00000,0.326370
805.50000, 
806.00000,0.325546
806.50000, 
807.00000,0.324402
807.50000, 
808.00000,0.323792
808.50000, 
809.00000,0.322784
809.50000, 
810.00000,0.321533
810.50000, 
811.00000,0.320755
811.50000, 
812.00000,0.319611
812.50000, 
813.00000,0.318497
813.50000, 
814.00000,0.317734
814.50000, 
815.00000,0.316498
815.50000, 
816.00000,0.315308
816.50000, 
817.00000,0.314362
817.50000, 
818.00000,0.312897
818.50000, 
819.00000,0.311813
819.50000, 
820.00000,0.310898
820.50000, 
821.00000,0.309296
821.50000, 
822.00000,0.308273
822.50000, 
823.00000,0.307068
823.50000, 
824.00000,0.305740
824.50000, 
825.00000,0.304443
825.50000, 
826.00000,0.303513
826.50000, 
827.00000,0.301773
827.50000, 
828.00000,0.300583
828.50000, 
829.00000,0.299347
829.50000, 
830.00000,0.297836
830.50000, 
831.00000,0.296341
831.50000, 
832.00000,0.295090
832.50000, 
833.00000,0.293427
833.50000, 
834.00000,0.291916
834.50000, 
835.00000,0.290649
835.50000, 
836.00000,0.288803
836.50000, 
837.00000,0.287323
837.50000, 
838.00000,0.285782
838.50000, 
839.00000,0.284119
839.50000, 
840.00000,0.282455
840.50000, 
841.00000,0.281204
841.50000, 
842.00000,0.279282
842.50000, 
843.00000,0.277725
843.50000, 
844.00000,0.276184
844.50000, 
845.00000,0.274445
845.50000, 
846.00000,0.272751
846.50000, 
847.00000,0.271271
847.50000, 
848.00000,0.269760
848.50000, 
849.00000,0.267807
849.50000, 
850.00000,0.266449
850.50000, 
851.00000,0.264664
851.50000, 
852.00000,0.263092
852.50000, 
853.00000,0.261459
853.50000, 
854.00000,0.259766
854.50000, 
855.00000,0.257889
855.50000, 
856.00000,0.256256
856.50000, 
857.00000,0.254745
857.50000, 
858.00000,0.252594
858.50000, 
859.00000,0.251129
859.50000, 
860.00000,0.249390
860.50000, 
861.00000,0.247787
861.50000, 
862.00000,0.246017
862.50000, 
863.00000,0.244385
863.50000, 
864.00000,0.242737
864.50000, 
865.00000,0.240982
865.50000, 
866.00000,0.239563
866.50000, 
867.00000,0.237854
867.50000, 
868.00000,0.236511
868.50000, 
869.00000,0.234924
869.50000, 
870.00000,0.233398
870.50000, 
871.00000,0.231934
871.50000, 
872.00000,0.230377
872.50000, 
873.00000,0.229111
873.50000, 
874.00000,0.227478
874.50000, 
875.00000,0.226196
875.50000, 
876.00000,0.224792
876.50000, 
877.00000,0.223282
877.50000, 
878.00000,0.222061
878.50000, 
879.00000,0.220596
879.50000, 
880.00000,0.219284
880.50000, 
881.00000,0.217636
881.50000, 
882.00000,0.216400
882.50000, 
883.00000,0.215103
883.50000, 
884.00000,0.213715
884.50000, 
885.00000,0.212524
885.50000, 
886.00000,0.211197
886.50000, 
887.00000,0.210220
887.50000, 
888.00000,0.208893
888.50000, 
889.00000,0.207779
889.50000, 
890.00000,0.206924
890.50000, 
891.00000,0.205627
891.50000, 
892.00000,0.204773
892.50000, 
893.00000,0.203796
893.50000, 
894.00000,0.202667
894.50000, 
895.00000,0.201950
895.50000, 
896.00000,0.200974
896.50000, 
897.00000,0.200073
897.50000, 
898.00000,0.199234
898.50000, 
899.00000,0.198456
899.50000, 
900.00000,0.197861
900.50000, 
901.00000, 
901.50000, 
902.00000, 
902.50000, 
903.00000, 
903.50000, 
904.00000, 
904.50000, 
905.00000, 
905.50000, 
906.00000, 
906.50000, 
907.00000, 
907.50000, 
908.00000, 
908.50000, 
909.00000, 
909.50000, 
910.00000, 
910.50000, 
911.00000, 
911.50000, 
912.00000, 
912.50000, 
913.00000, 
913.50000, 
914.00000, 
914.50000, 
915.00000, 
915.50000, 
916.00000, 
916.50000, 
917.00000, 
917.50000, 
918.00000, 
918.50000, 
919.00000, 
919.50000, 
920.00000, 
920.50000, 
921.00000, 
921.50000, 
922.00000, 
922.50000, 
923.00000, 
923.50000, 
924.00000, 
924.50000, 
925.00000, 
925.50000, 
926.00000, 
926.50000, 
927.00000, 
927.50000, 
928.00000, 
928.50000, 
929.00000, 
929.50000, 
930.00000, 
930.50000, 
931.00000, 
931.50000, 
932.00000, 
932.50000, 
933.00000, 
933.50000, 
934.00000, 
934.50000, 
935.00000, 
935.50000, 
936.00000, 
936.50000, 
937.00000, 
937.50000, 
938.00000, 
938.50000, 
939.00000, 
939.50000, 
940.00000, 
940.50000, 
941.00000, 
941.50000, 
942.00000, 
942.50000, 
943.00000, 
943.50000, 
944.00000, 
944.50000, 
945.00000, 
945.50000, 
946.00000, 
946.50000, 
947.00000, 
947.50000, 
948.00000, 
948.50000, 
949.00000, 
949.50000, 
950.00000, 
950.50000, 
951.00000, 
951.50000, 
952.00000, 
952.50000, 
953.00000, 
953.50000, 
954.00000, 
954.50000, 
955.00000, 
955.50000, 
956.00000, 
956.50000, 
957.00000, 
957.50000, 
958.00000, 
958.50000, 
959.00000, 
959.50000, 
960.00000, 
960.50000, 
961.00000, 
961.50000, 
962.00000, 
962.50000, 
963.00000, 
963.50000, 
964.00000, 
964.50000, 
965.00000, 
965.50000, 
966.00000, 
966.50000, 
967.00000, 
967.50000, 
968.00000, 
968.50000, 
969.00000, 
969.50000, 
970.00000, 
970.50000, 
971.00000, 
971.50000, 
972.00000, 
972.50000, 
973.00000, 
973.50000, 
974.00000, 
974.50000, 
975.00000, 
975.50000, 
976.00000, 
976.50000, 
977.00000, 
977.50000, 
978.00000, 
978.50000, 
979.00000, 
979.50000, 
980.00000, 
980.50000, 
981.00000, 
981.50000, 
982.00000, 
982.50000, 
983.00000, 
983.50000, 
984.00000, 
984.50000, 
985.00000, 
985.50000, 
986.00000, 
986.50000, 
987.00000, 
987.50000, 
988.00000, 
988.50000, 
989.00000, 
989.50000, 
990.00000, 
990.50000, 
991.00000, 
991.50000, 
992.00000, 
992.50000, 
993.00000, 
993.50000, 
994.00000, 
994.50000, 
995.00000, 
995.50000, 
996.00000, 
996.50000, 
997.00000, 
997.50000, 
998.00000, 
998.50000, 
999.00000, 
999.50000, 
1000.00000, 
1000.50000, 
1001.00000, 
1001.50000, 
1002.00000, 
1002.50000, 
1003.00000, 
1003.50000, 
1004.00000, 
1004.50000, 
1005.00000, 
1005.50000, 
1006.00000, 
1006.50000, 
1007.00000, 
1007.50000, 
1008.00000, 
1008.50000, 
1009.00000, 
1009.50000, 
1010.00000, 
1010.50000, 
1011.00000, 
1011.50000, 
1012.00000, 
1012.50000, 
1013.00000, 
1013.50000, 
1014.00000, 
1014.50000, 
1015.00000, 
1015.50000, 
1016.00000, 
1016.50000, 
1017.00000, 
1017.50000, 
1018.00000, 
1018.50000, 
1019.00000, 
1019.50000, 
1020.00000, 
1020.50000, 
1021.00000, 
1021.50000, 
1022.00000, 
1022.50000, 
1023.00000, 
1023.50000, 
1024.00000, 
1024.50000, 
1025.00000, 
1025.50000, 
1026.00000, 
1026.50000, 
1027.00000, 
1027.50000, 
1028.00000, 
1028.50000, 
1029.00000, 
1029.50000, 
1030.00000, 
1030.50000, 
1031.00000, 
1031.50000, 
1032.00000, 
1032.50000, 
1033.00000, 
1033.50000, 
1034.00000, 
1034.50000, 
1035.00000, 
1035.50000, 
1036.00000, 
1036.50000, 
1037.00000, 
1037.50000, 
1038.00000, 
1038.50000, 
1039.00000, 
1039.50000, 
1040.00000, 
1040.50000, 
1041.00000, 
1041.50000, 
1042.00000, 
1042.50000, 
1043.00000, 
1043.50000, 
1044.00000, 
1044.50000, 
1045.00000, 
1045.50000, 
1046.00000, 
1046.50000, 
1047.00000, 
1047.50000, 
1048.00000, 
1048.50000, 
1049.00000, 
1049.50000, 
1050.00000, 
1050.50000, 
1051.00000, 
1051.50000, 
1052.00000, 
1052.50000, 
1053.00000, 
1053.50000, 
1054.00000, 
1054.50000, 
1055.00000, 
1055.50000, 
1056.00000, 
1056.50000, 
1057.00000, 
1057.50000, 
1058.00000, 
1058.50000, 
1059.00000, 
1059.50000, 
1060.00000, 
1060.50000, 
1061.00000, 
1061.50000, 
1062.00000, 
1062.50000, 
1063.00000, 
1063.50000, 
1064.00000, 
1064.50000, 
1065.00000, 
1065.50000, 
1066.00000, 
1066.50000, 
1067.00000, 
1067.50000, 
1068.00000, 
1068.50000, 
1069.00000, 
1069.50000, 
1070.00000, 
1070.50000, 
1071.00000, 
1071.50000, 
1072.00000, 
1072.50000, 
1073.00000, 
1073.50000, 
1074.00000, 
1074.50000, 
1075.00000, 
1075.50000, 
1076.00000, 
1076.50000, 
1077.00000, 
1077.50000, 
1078.00000, 
1078.50000, 
1079.00000, 
1079.50000, 
1080.00000, 
1080.50000, 
1081.00000, 
1081.50000, 
1082.00000, 
1082.50000, 
1083.00000, 
1083.50000, 
1084.00000, 
1084.50000, 
1085.00000, 
1085.50000, 
1086.00000, 
1086.50000, 
1087.00000, 
1087.50000, 
1088.00000, 
1088.50000, 
1089.00000, 
1089.50000, 
1090.00000, 
1090.50000, 
1091.00000, 
1091.50000, 
1092.00000, 
1092.50000, 
1093.00000, 
1093.50000, 
1094.00000, 
1094.50000, 
1095.00000, 
1095.50000, 
1096.00000, 
1096.50000, 
1097.00000, 
1097.50000, 
1098.00000, 
1098.50000, 
1099.00000, 
1099.50000, 
1100.00000, 
