"10%2 - RawData"
"Wavelength nm.","Abs."
300.00000,0.836212
300.50000, 
301.00000,0.832535
301.50000, 
302.00000,0.826904
302.50000, 
303.00000,0.821152
303.50000, 
304.00000,0.816223
304.50000, 
305.00000,0.811478
305.50000, 
306.00000,0.807663
306.50000, 
307.00000,0.803268
307.50000, 
308.00000,0.799057
308.50000, 
309.00000,0.794373
309.50000, 
310.00000,0.790253
310.50000, 
311.00000,0.786179
311.50000, 
312.00000,0.782761
312.50000, 
313.00000,0.779221
313.50000, 
314.00000,0.776459
314.50000, 
315.00000,0.772705
315.50000, 
316.00000,0.769958
316.50000, 
317.00000,0.767990
317.50000, 
318.00000,0.766129
318.50000, 
319.00000,0.763992
319.50000, 
320.00000,0.762695
320.50000, 
321.00000,0.761826
321.50000, 
322.00000,0.761047
322.50000, 
323.00000,0.760513
323.50000, 
324.00000,0.760605
324.50000, 
325.00000,0.760681
325.50000, 
326.00000,0.759827
326.50000, 
327.00000,0.759903
327.50000, 
328.00000,0.760651
328.50000, 
329.00000,0.760681
329.50000, 
330.00000,0.760544
330.50000, 
331.00000,0.761414
331.50000, 
332.00000,0.760880
332.50000, 
333.00000,0.760162
333.50000, 
334.00000,0.759476
334.50000, 
335.00000,0.758606
335.50000, 
336.00000,0.757462
336.50000, 
337.00000,0.754822
337.50000, 
338.00000,0.752655
338.50000, 
339.00000,0.750137
339.50000, 
340.00000,0.747650
340.50000, 
341.00000,0.745972
341.50000, 
342.00000,0.741562
342.50000, 
343.00000,0.738205
343.50000, 
344.00000,0.733185
344.50000, 
345.00000,0.728394
345.50000, 
346.00000,0.723389
346.50000, 
347.00000,0.719116
347.50000, 
348.00000,0.714828
348.50000, 
349.00000,0.710175
349.50000, 
350.00000,0.705688
350.50000, 
351.00000,0.700439
351.50000, 
352.00000,0.695465
352.50000, 
353.00000,0.690704
353.50000, 
354.00000,0.685516
354.50000, 
355.00000,0.680801
355.50000, 
356.00000,0.675400
356.50000, 
357.00000,0.671127
357.50000, 
358.00000,0.666656
358.50000, 
359.00000,0.662354
359.50000, 
360.00000,0.657928
360.50000, 
361.00000,0.653625
361.50000, 
362.00000,0.649902
362.50000, 
363.00000,0.645752
363.50000, 
364.00000,0.642899
364.50000, 
365.00000,0.638870
365.50000, 
366.00000,0.635773
366.50000, 
367.00000,0.632111
367.50000, 
368.00000,0.628769
368.50000, 
369.00000,0.625351
369.50000, 
370.00000,0.622101
370.50000, 
371.00000,0.618759
371.50000, 
372.00000,0.616028
372.50000, 
373.00000,0.612640
373.50000, 
374.00000,0.609329
374.50000, 
375.00000,0.606262
375.50000, 
376.00000,0.602936
376.50000, 
377.00000,0.600281
377.50000, 
378.00000,0.597565
378.50000, 
379.00000,0.594910
379.50000, 
380.00000,0.592163
380.50000, 
381.00000,0.589813
381.50000, 
382.00000,0.587326
382.50000, 
383.00000,0.584961
383.50000, 
384.00000,0.582520
384.50000, 
385.00000,0.580597
385.50000, 
386.00000,0.578201
386.50000, 
387.00000,0.576294
387.50000, 
388.00000,0.574356
388.50000, 
389.00000,0.572250
389.50000, 
390.00000,0.570496
390.50000, 
391.00000,0.568970
391.50000, 
392.00000,0.567230
392.50000, 
393.00000,0.565643
393.50000, 
394.00000,0.564362
394.50000, 
395.00000,0.562973
395.50000, 
396.00000,0.561569
396.50000, 
397.00000,0.560135
397.50000, 
398.00000,0.559097
398.50000, 
399.00000,0.557922
399.50000, 
400.00000,0.556885
400.50000, 
401.00000,0.555649
401.50000, 
402.00000,0.554550
402.50000, 
403.00000,0.553497
403.50000, 
404.00000,0.552704
404.50000, 
405.00000,0.552124
405.50000, 
406.00000,0.551468
406.50000, 
407.00000,0.551086
407.50000, 
408.00000,0.550797
408.50000, 
409.00000,0.550491
409.50000, 
410.00000,0.550095
410.50000, 
411.00000,0.549744
411.50000, 
412.00000,0.549576
412.50000, 
413.00000,0.549362
413.50000, 
414.00000,0.549133
414.50000, 
415.00000,0.548813
415.50000, 
416.00000,0.548645
416.50000, 
417.00000,0.548798
417.50000, 
418.00000,0.548630
418.50000, 
419.00000,0.548340
419.50000, 
420.00000,0.548172
420.50000, 
421.00000,0.547928
421.50000, 
422.00000,0.547928
422.50000, 
423.00000,0.547729
423.50000, 
424.00000,0.547714
424.50000, 
425.00000,0.547623
425.50000, 
426.00000,0.547760
426.50000, 
427.00000,0.548096
427.50000, 
428.00000,0.548477
428.50000, 
429.00000,0.548981
429.50000, 
430.00000,0.549469
430.50000, 
431.00000,0.550095
431.50000, 
432.00000,0.550735
432.50000, 
433.00000,0.551346
433.50000, 
434.00000,0.551987
434.50000, 
435.00000,0.552612
435.50000, 
436.00000,0.553024
436.50000, 
437.00000,0.553360
437.50000, 
438.00000,0.553619
438.50000, 
439.00000,0.553955
439.50000, 
440.00000,0.554306
440.50000, 
441.00000,0.554459
441.50000, 
442.00000,0.554764
442.50000, 
443.00000,0.555038
443.50000, 
444.00000,0.555267
444.50000, 
445.00000,0.555573
445.50000, 
446.00000,0.555878
446.50000, 
447.00000,0.556213
447.50000, 
448.00000,0.556564
448.50000, 
449.00000,0.556854
449.50000, 
450.00000,0.557266
450.50000, 
451.00000,0.557709
451.50000, 
452.00000,0.558151
452.50000, 
453.00000,0.558624
453.50000, 
454.00000,0.559082
454.50000, 
455.00000,0.559509
455.50000, 
456.00000,0.560059
456.50000, 
457.00000,0.560471
457.50000, 
458.00000,0.560898
458.50000, 
459.00000,0.561340
459.50000, 
460.00000,0.561829
460.50000, 
461.00000,0.562286
461.50000, 
462.00000,0.562714
462.50000, 
463.00000,0.563110
463.50000, 
464.00000,0.563614
464.50000, 
465.00000,0.563858
465.50000, 
466.00000,0.564178
466.50000, 
467.00000,0.564499
467.50000, 
468.00000,0.564896
468.50000, 
469.00000,0.565186
469.50000, 
470.00000,0.565308
470.50000, 
471.00000,0.565491
471.50000, 
472.00000,0.565674
472.50000, 
473.00000,0.565842
473.50000, 
474.00000,0.565918
474.50000, 
475.00000,0.566040
475.50000, 
476.00000,0.566147
476.50000, 
477.00000,0.566147
477.50000, 
478.00000,0.566147
478.50000, 
479.00000,0.566193
479.50000, 
480.00000,0.566132
480.50000, 
481.00000,0.566116
481.50000, 
482.00000,0.566086
482.50000, 
483.00000,0.566055
483.50000, 
484.00000,0.565918
484.50000, 
485.00000,0.565796
485.50000, 
486.00000,0.565613
486.50000, 
487.00000,0.565430
487.50000, 
488.00000,0.565216
488.50000, 
489.00000,0.564972
489.50000, 
490.00000,0.564728
490.50000, 
491.00000,0.564362
491.50000, 
492.00000,0.564026
492.50000, 
493.00000,0.563614
493.50000, 
494.00000,0.563187
494.50000, 
495.00000,0.562714
495.50000, 
496.00000,0.562164
496.50000, 
497.00000,0.561508
497.50000, 
498.00000,0.560852
498.50000, 
499.00000,0.560349
499.50000, 
500.00000,0.559616
500.50000, 
501.00000,0.558792
501.50000, 
502.00000,0.557983
502.50000, 
503.00000,0.557190
503.50000, 
504.00000,0.556381
504.50000, 
505.00000,0.555511
505.50000, 
506.00000,0.554520
506.50000, 
507.00000,0.553528
507.50000, 
508.00000,0.552597
508.50000, 
509.00000,0.551392
509.50000, 
510.00000,0.550308
510.50000, 
511.00000,0.549210
511.50000, 
512.00000,0.547974
512.50000, 
513.00000,0.546783
513.50000, 
514.00000,0.545547
514.50000, 
515.00000,0.544281
515.50000, 
516.00000,0.542908
516.50000, 
517.00000,0.541611
517.50000, 
518.00000,0.540237
518.50000, 
519.00000,0.538879
519.50000, 
520.00000,0.537415
520.50000, 
521.00000,0.536011
521.50000, 
522.00000,0.534454
522.50000, 
523.00000,0.532944
523.50000, 
524.00000,0.531342
524.50000, 
525.00000,0.529846
525.50000, 
526.00000,0.528320
526.50000, 
527.00000,0.526657
527.50000, 
528.00000,0.525040
528.50000, 
529.00000,0.523392
529.50000, 
530.00000,0.521744
530.50000, 
531.00000,0.520096
531.50000, 
532.00000,0.518570
532.50000, 
533.00000,0.516907
533.50000, 
534.00000,0.515320
534.50000, 
535.00000,0.513840
535.50000, 
536.00000,0.512146
536.50000, 
537.00000,0.510040
537.50000, 
538.00000,0.508484
538.50000, 
539.00000,0.507050
539.50000, 
540.00000,0.505600
540.50000, 
541.00000,0.504166
541.50000, 
542.00000,0.502640
542.50000, 
543.00000,0.501053
543.50000, 
544.00000,0.499496
544.50000, 
545.00000,0.497971
545.50000, 
546.00000,0.496368
546.50000, 
547.00000,0.494766
547.50000, 
548.00000,0.493195
548.50000, 
549.00000,0.491470
549.50000, 
550.00000,0.489594
550.50000, 
551.00000,0.487839
551.50000, 
552.00000,0.486008
552.50000, 
553.00000,0.483978
553.50000, 
554.00000,0.481918
554.50000, 
555.00000,0.479813
555.50000, 
556.00000,0.477661
556.50000, 
557.00000,0.475388
557.50000, 
558.00000,0.473022
558.50000, 
559.00000,0.470627
559.50000, 
560.00000,0.468353
560.50000, 
561.00000,0.465881
561.50000, 
562.00000,0.463425
562.50000, 
563.00000,0.460938
563.50000, 
564.00000,0.458359
564.50000, 
565.00000,0.455765
565.50000, 
566.00000,0.453232
566.50000, 
567.00000,0.450699
567.50000, 
568.00000,0.448059
568.50000, 
569.00000,0.445343
569.50000, 
570.00000,0.442780
570.50000, 
571.00000,0.440262
571.50000, 
572.00000,0.437637
572.50000, 
573.00000,0.435135
573.50000, 
574.00000,0.432556
574.50000, 
575.00000,0.429977
575.50000, 
576.00000,0.427383
576.50000, 
577.00000,0.424896
577.50000, 
578.00000,0.422531
578.50000, 
579.00000,0.420212
579.50000, 
580.00000,0.417953
580.50000, 
581.00000,0.415771
581.50000, 
582.00000,0.413696
582.50000, 
583.00000,0.411697
583.50000, 
584.00000,0.409637
584.50000, 
585.00000,0.407776
585.50000, 
586.00000,0.406067
586.50000, 
587.00000,0.404419
587.50000, 
588.00000,0.402786
588.50000, 
589.00000,0.401230
589.50000, 
590.00000,0.399780
590.50000, 
591.00000,0.398331
591.50000, 
592.00000,0.396912
592.50000, 
593.00000,0.395355
593.50000, 
594.00000,0.393936
594.50000, 
595.00000,0.392456
595.50000, 
596.00000,0.391006
596.50000, 
597.00000,0.389496
597.50000, 
598.00000,0.387909
598.50000, 
599.00000,0.386246
599.50000, 
600.00000,0.384537
600.50000, 
601.00000,0.382645
601.50000, 
602.00000,0.380630
602.50000, 
603.00000,0.378555
603.50000, 
604.00000,0.376175
604.50000, 
605.00000,0.373917
605.50000, 
606.00000,0.371445
606.50000, 
607.00000,0.368881
607.50000, 
608.00000,0.366196
608.50000, 
609.00000,0.363403
609.50000, 
610.00000,0.360580
610.50000, 
611.00000,0.357788
611.50000, 
612.00000,0.354691
612.50000, 
613.00000,0.351501
613.50000, 
614.00000,0.348343
614.50000, 
615.00000,0.345062
615.50000, 
616.00000,0.341721
616.50000, 
617.00000,0.338409
617.50000, 
618.00000,0.334991
618.50000, 
619.00000,0.331543
619.50000, 
620.00000,0.328125
620.50000, 
621.00000,0.324524
621.50000, 
622.00000,0.320892
622.50000, 
623.00000,0.317245
623.50000, 
624.00000,0.313522
624.50000, 
625.00000,0.309814
625.50000, 
626.00000,0.306274
626.50000, 
627.00000,0.302750
627.50000, 
628.00000,0.299210
628.50000, 
629.00000,0.295792
629.50000, 
630.00000,0.292419
630.50000, 
631.00000,0.289154
631.50000, 
632.00000,0.285919
632.50000, 
633.00000,0.282806
633.50000, 
634.00000,0.279663
634.50000, 
635.00000,0.276535
635.50000, 
636.00000,0.273941
636.50000, 
637.00000,0.271347
637.50000, 
638.00000,0.268997
638.50000, 
639.00000,0.266678
639.50000, 
640.00000,0.264557
640.50000, 
641.00000,0.262543
641.50000, 
642.00000,0.260483
642.50000, 
643.00000,0.258606
643.50000, 
644.00000,0.256790
644.50000, 
645.00000,0.254990
645.50000, 
646.00000,0.253143
646.50000, 
647.00000,0.251328
647.50000, 
648.00000,0.249466
648.50000, 
649.00000,0.247650
649.50000, 
650.00000,0.245895
650.50000, 
651.00000,0.244232
651.50000, 
652.00000,0.242599
652.50000, 
653.00000,0.241119
653.50000, 
654.00000,0.239594
654.50000, 
655.00000,0.238174
655.50000, 
656.00000,0.236801
656.50000, 
657.00000,0.235565
657.50000, 
658.00000,0.234344
658.50000, 
659.00000,0.233200
659.50000, 
660.00000,0.232086
660.50000, 
661.00000,0.230988
661.50000, 
662.00000,0.230011
662.50000, 
663.00000,0.229019
663.50000, 
664.00000,0.228134
664.50000, 
665.00000,0.227310
665.50000, 
666.00000,0.226501
666.50000, 
667.00000,0.225677
667.50000, 
668.00000,0.224930
668.50000, 
669.00000,0.224228
669.50000, 
670.00000,0.223587
670.50000, 
671.00000,0.222900
671.50000, 
672.00000,0.222183
672.50000, 
673.00000,0.221619
673.50000, 
674.00000,0.221054
674.50000, 
675.00000,0.220444
675.50000, 
676.00000,0.219803
676.50000, 
677.00000,0.219299
677.50000, 
678.00000,0.218842
678.50000, 
679.00000,0.218323
679.50000, 
680.00000,0.217804
680.50000, 
681.00000,0.217346
681.50000, 
682.00000,0.216858
682.50000, 
683.00000,0.216461
683.50000, 
684.00000,0.216064
684.50000, 
685.00000,0.215683
685.50000, 
686.00000,0.215378
686.50000, 
687.00000,0.215012
687.50000, 
688.00000,0.214691
688.50000, 
689.00000,0.214401
689.50000, 
690.00000,0.214081
690.50000, 
691.00000,0.213776
691.50000, 
692.00000,0.213547
692.50000, 
693.00000,0.213303
693.50000, 
694.00000,0.213104
694.50000, 
695.00000,0.212799
695.50000, 
696.00000,0.212570
696.50000, 
697.00000,0.212311
697.50000, 
698.00000,0.212067
698.50000, 
699.00000,0.211853
699.50000, 
700.00000,0.211624
700.50000, 
701.00000,0.211395
701.50000, 
702.00000,0.211212
702.50000, 
703.00000,0.211029
703.50000, 
704.00000,0.210785
704.50000, 
705.00000,0.210571
705.50000, 
706.00000,0.210327
706.50000, 
707.00000,0.210037
707.50000, 
708.00000,0.209778
708.50000, 
709.00000,0.209488
709.50000, 
710.00000,0.209091
710.50000, 
711.00000,0.208740
711.50000, 
712.00000,0.208313
712.50000, 
713.00000,0.207886
713.50000, 
714.00000,0.207382
714.50000, 
715.00000,0.206848
715.50000, 
716.00000,0.206360
716.50000, 
717.00000,0.205872
717.50000, 
718.00000,0.205307
718.50000, 
719.00000,0.204773
719.50000, 
720.00000,0.204254
720.50000, 
721.00000,0.203720
721.50000, 
722.00000,0.203232
722.50000, 
723.00000,0.202789
723.50000, 
724.00000,0.202286
724.50000, 
725.00000,0.201843
725.50000, 
726.00000,0.201401
726.50000, 
727.00000,0.200974
727.50000, 
728.00000,0.200577
728.50000, 
729.00000,0.200134
729.50000, 
730.00000,0.199753
730.50000, 
731.00000,0.199417
731.50000, 
732.00000,0.199051
732.50000, 
733.00000,0.198730
733.50000, 
734.00000,0.198364
734.50000, 
735.00000,0.198044
735.50000, 
736.00000,0.197800
736.50000, 
737.00000,0.197510
737.50000, 
738.00000,0.197220
738.50000, 
739.00000,0.196960
739.50000, 
740.00000,0.196625
740.50000, 
741.00000,0.196426
741.50000, 
742.00000,0.196106
742.50000, 
743.00000,0.195816
743.50000, 
744.00000,0.195587
744.50000, 
745.00000,0.195358
745.50000, 
746.00000,0.194992
746.50000, 
747.00000,0.194641
747.50000, 
748.00000,0.194229
748.50000, 
749.00000,0.193954
749.50000, 
750.00000,0.193726
750.50000, 
751.00000,0.193405
751.50000, 
752.00000,0.193161
752.50000, 
753.00000,0.192932
753.50000, 
754.00000,0.192688
754.50000, 
755.00000,0.192490
755.50000, 
756.00000,0.192276
756.50000, 
757.00000,0.192032
757.50000, 
758.00000,0.191788
758.50000, 
759.00000,0.191544
759.50000, 
760.00000,0.191406
760.50000, 
761.00000,0.191254
761.50000, 
762.00000,0.190994
762.50000, 
763.00000,0.190842
763.50000, 
764.00000,0.190628
764.50000, 
765.00000,0.190369
765.50000, 
766.00000,0.190140
766.50000, 
767.00000,0.189926
767.50000, 
768.00000,0.189774
768.50000, 
769.00000,0.189560
769.50000, 
770.00000,0.189346
770.50000, 
771.00000,0.189148
771.50000, 
772.00000,0.188965
772.50000, 
773.00000,0.188721
773.50000, 
774.00000,0.188538
774.50000, 
775.00000,0.188293
775.50000, 
776.00000,0.188156
776.50000, 
777.00000,0.187973
777.50000, 
778.00000,0.187744
778.50000, 
779.00000,0.187561
779.50000, 
780.00000,0.187363
780.50000, 
781.00000,0.187180
781.50000, 
782.00000,0.187088
782.50000, 
783.00000,0.186874
783.50000, 
784.00000,0.186707
784.50000, 
785.00000,0.186508
785.50000, 
786.00000,0.186310
786.50000, 
787.00000,0.186157
787.50000, 
788.00000,0.185944
788.50000, 
789.00000,0.185745
789.50000, 
790.00000,0.185669
790.50000, 
791.00000,0.185471
791.50000, 
792.00000,0.185318
792.50000, 
793.00000,0.185104
793.50000, 
794.00000,0.184937
794.50000, 
795.00000,0.184769
795.50000, 
796.00000,0.184647
796.50000, 
797.00000,0.184479
797.50000, 
798.00000,0.184280
798.50000, 
799.00000,0.184174
799.50000, 
800.00000,0.183990
800.50000, 
801.00000,0.183807
801.50000, 
802.00000,0.183640
802.50000, 
803.00000,0.183502
803.50000, 
804.00000,0.183334
804.50000, 
805.00000,0.183182
805.50000, 
806.00000,0.183060
806.50000, 
807.00000,0.182922
807.50000, 
808.00000,0.182846
808.50000, 
809.00000,0.182648
809.50000, 
810.00000,0.182434
810.50000, 
811.00000,0.182205
811.50000, 
812.00000,0.182083
812.50000, 
813.00000,0.181946
813.50000, 
814.00000,0.181824
814.50000, 
815.00000,0.181732
815.50000, 
816.00000,0.181519
816.50000, 
817.00000,0.181290
817.50000, 
818.00000,0.181076
818.50000, 
819.00000,0.181015
819.50000, 
820.00000,0.180893
820.50000, 
821.00000,0.180710
821.50000, 
822.00000,0.180618
822.50000, 
823.00000,0.180405
823.50000, 
824.00000,0.180237
824.50000, 
825.00000,0.180145
825.50000, 
826.00000,0.180023
826.50000, 
827.00000,0.179871
827.50000, 
828.00000,0.179733
828.50000, 
829.00000,0.179611
829.50000, 
830.00000,0.179443
830.50000, 
831.00000,0.179306
831.50000, 
832.00000,0.179138
832.50000, 
833.00000,0.179077
833.50000, 
834.00000,0.178925
834.50000, 
835.00000,0.178818
835.50000, 
836.00000,0.178726
836.50000, 
837.00000,0.178574
837.50000, 
838.00000,0.178436
838.50000, 
839.00000,0.178284
839.50000, 
840.00000,0.178146
840.50000, 
841.00000,0.178024
841.50000, 
842.00000,0.177963
842.50000, 
843.00000,0.177765
843.50000, 
844.00000,0.177704
844.50000, 
845.00000,0.177567
845.50000, 
846.00000,0.177444
846.50000, 
847.00000,0.177368
847.50000, 
848.00000,0.177277
848.50000, 
849.00000,0.177078
849.50000, 
850.00000,0.176941
850.50000, 
851.00000,0.176865
851.50000, 
852.00000,0.176819
852.50000, 
853.00000,0.176682
853.50000, 
854.00000,0.176575
854.50000, 
855.00000,0.176437
855.50000, 
856.00000,0.176315
856.50000, 
857.00000,0.176163
857.50000, 
858.00000,0.176041
858.50000, 
859.00000,0.175934
859.50000, 
860.00000,0.175797
860.50000, 
861.00000,0.175674
861.50000, 
862.00000,0.175552
862.50000, 
863.00000,0.175446
863.50000, 
864.00000,0.175323
864.50000, 
865.00000,0.175201
865.50000, 
866.00000,0.175079
866.50000, 
867.00000,0.175034
867.50000, 
868.00000,0.174942
868.50000, 
869.00000,0.174789
869.50000, 
870.00000,0.174652
870.50000, 
871.00000,0.174545
871.50000, 
872.00000,0.174515
872.50000, 
873.00000,0.174408
873.50000, 
874.00000,0.174377
874.50000, 
875.00000,0.174408
875.50000, 
876.00000,0.174301
876.50000, 
877.00000,0.174179
877.50000, 
878.00000,0.174088
878.50000, 
879.00000,0.173981
879.50000, 
880.00000,0.173859
880.50000, 
881.00000,0.173737
881.50000, 
882.00000,0.173676
882.50000, 
883.00000,0.173599
883.50000, 
884.00000,0.173477
884.50000, 
885.00000,0.173279
885.50000, 
886.00000,0.173218
886.50000, 
887.00000,0.173187
887.50000, 
888.00000,0.173050
888.50000, 
889.00000,0.173050
889.50000, 
890.00000,0.173050
890.50000, 
891.00000,0.173004
891.50000, 
892.00000,0.173065
892.50000, 
893.00000,0.173019
893.50000, 
894.00000,0.172943
894.50000, 
895.00000,0.173035
895.50000, 
896.00000,0.173050
896.50000, 
897.00000,0.173050
897.50000, 
898.00000,0.173172
898.50000, 
899.00000,0.173264
899.50000, 
900.00000,0.173370
900.50000, 
901.00000, 
901.50000, 
902.00000, 
902.50000, 
903.00000, 
903.50000, 
904.00000, 
904.50000, 
905.00000, 
905.50000, 
906.00000, 
906.50000, 
907.00000, 
907.50000, 
908.00000, 
908.50000, 
909.00000, 
909.50000, 
910.00000, 
910.50000, 
911.00000, 
911.50000, 
912.00000, 
912.50000, 
913.00000, 
913.50000, 
914.00000, 
914.50000, 
915.00000, 
915.50000, 
916.00000, 
916.50000, 
917.00000, 
917.50000, 
918.00000, 
918.50000, 
919.00000, 
919.50000, 
920.00000, 
920.50000, 
921.00000, 
921.50000, 
922.00000, 
922.50000, 
923.00000, 
923.50000, 
924.00000, 
924.50000, 
925.00000, 
925.50000, 
926.00000, 
926.50000, 
927.00000, 
927.50000, 
928.00000, 
928.50000, 
929.00000, 
929.50000, 
930.00000, 
930.50000, 
931.00000, 
931.50000, 
932.00000, 
932.50000, 
933.00000, 
933.50000, 
934.00000, 
934.50000, 
935.00000, 
935.50000, 
936.00000, 
936.50000, 
937.00000, 
937.50000, 
938.00000, 
938.50000, 
939.00000, 
939.50000, 
940.00000, 
940.50000, 
941.00000, 
941.50000, 
942.00000, 
942.50000, 
943.00000, 
943.50000, 
944.00000, 
944.50000, 
945.00000, 
945.50000, 
946.00000, 
946.50000, 
947.00000, 
947.50000, 
948.00000, 
948.50000, 
949.00000, 
949.50000, 
950.00000, 
950.50000, 
951.00000, 
951.50000, 
952.00000, 
952.50000, 
953.00000, 
953.50000, 
954.00000, 
954.50000, 
955.00000, 
955.50000, 
956.00000, 
956.50000, 
957.00000, 
957.50000, 
958.00000, 
958.50000, 
959.00000, 
959.50000, 
960.00000, 
960.50000, 
961.00000, 
961.50000, 
962.00000, 
962.50000, 
963.00000, 
963.50000, 
964.00000, 
964.50000, 
965.00000, 
965.50000, 
966.00000, 
966.50000, 
967.00000, 
967.50000, 
968.00000, 
968.50000, 
969.00000, 
969.50000, 
970.00000, 
970.50000, 
971.00000, 
971.50000, 
972.00000, 
972.50000, 
973.00000, 
973.50000, 
974.00000, 
974.50000, 
975.00000, 
975.50000, 
976.00000, 
976.50000, 
977.00000, 
977.50000, 
978.00000, 
978.50000, 
979.00000, 
979.50000, 
980.00000, 
980.50000, 
981.00000, 
981.50000, 
982.00000, 
982.50000, 
983.00000, 
983.50000, 
984.00000, 
984.50000, 
985.00000, 
985.50000, 
986.00000, 
986.50000, 
987.00000, 
987.50000, 
988.00000, 
988.50000, 
989.00000, 
989.50000, 
990.00000, 
990.50000, 
991.00000, 
991.50000, 
992.00000, 
992.50000, 
993.00000, 
993.50000, 
994.00000, 
994.50000, 
995.00000, 
995.50000, 
996.00000, 
996.50000, 
997.00000, 
997.50000, 
998.00000, 
998.50000, 
999.00000, 
999.50000, 
1000.00000, 
1000.50000, 
1001.00000, 
1001.50000, 
1002.00000, 
1002.50000, 
1003.00000, 
1003.50000, 
1004.00000, 
1004.50000, 
1005.00000, 
1005.50000, 
1006.00000, 
1006.50000, 
1007.00000, 
1007.50000, 
1008.00000, 
1008.50000, 
1009.00000, 
1009.50000, 
1010.00000, 
1010.50000, 
1011.00000, 
1011.50000, 
1012.00000, 
1012.50000, 
1013.00000, 
1013.50000, 
1014.00000, 
1014.50000, 
1015.00000, 
1015.50000, 
1016.00000, 
1016.50000, 
1017.00000, 
1017.50000, 
1018.00000, 
1018.50000, 
1019.00000, 
1019.50000, 
1020.00000, 
1020.50000, 
1021.00000, 
1021.50000, 
1022.00000, 
1022.50000, 
1023.00000, 
1023.50000, 
1024.00000, 
1024.50000, 
1025.00000, 
1025.50000, 
1026.00000, 
1026.50000, 
1027.00000, 
1027.50000, 
1028.00000, 
1028.50000, 
1029.00000, 
1029.50000, 
1030.00000, 
1030.50000, 
1031.00000, 
1031.50000, 
1032.00000, 
1032.50000, 
1033.00000, 
1033.50000, 
1034.00000, 
1034.50000, 
1035.00000, 
1035.50000, 
1036.00000, 
1036.50000, 
1037.00000, 
1037.50000, 
1038.00000, 
1038.50000, 
1039.00000, 
1039.50000, 
1040.00000, 
1040.50000, 
1041.00000, 
1041.50000, 
1042.00000, 
1042.50000, 
1043.00000, 
1043.50000, 
1044.00000, 
1044.50000, 
1045.00000, 
1045.50000, 
1046.00000, 
1046.50000, 
1047.00000, 
1047.50000, 
1048.00000, 
1048.50000, 
1049.00000, 
1049.50000, 
1050.00000, 
1050.50000, 
1051.00000, 
1051.50000, 
1052.00000, 
1052.50000, 
1053.00000, 
1053.50000, 
1054.00000, 
1054.50000, 
1055.00000, 
1055.50000, 
1056.00000, 
1056.50000, 
1057.00000, 
1057.50000, 
1058.00000, 
1058.50000, 
1059.00000, 
1059.50000, 
1060.00000, 
1060.50000, 
1061.00000, 
1061.50000, 
1062.00000, 
1062.50000, 
1063.00000, 
1063.50000, 
1064.00000, 
1064.50000, 
1065.00000, 
1065.50000, 
1066.00000, 
1066.50000, 
1067.00000, 
1067.50000, 
1068.00000, 
1068.50000, 
1069.00000, 
1069.50000, 
1070.00000, 
1070.50000, 
1071.00000, 
1071.50000, 
1072.00000, 
1072.50000, 
1073.00000, 
1073.50000, 
1074.00000, 
1074.50000, 
1075.00000, 
1075.50000, 
1076.00000, 
1076.50000, 
1077.00000, 
1077.50000, 
1078.00000, 
1078.50000, 
1079.00000, 
1079.50000, 
1080.00000, 
1080.50000, 
1081.00000, 
1081.50000, 
1082.00000, 
1082.50000, 
1083.00000, 
1083.50000, 
1084.00000, 
1084.50000, 
1085.00000, 
1085.50000, 
1086.00000, 
1086.50000, 
1087.00000, 
1087.50000, 
1088.00000, 
1088.50000, 
1089.00000, 
1089.50000, 
1090.00000, 
1090.50000, 
1091.00000, 
1091.50000, 
1092.00000, 
1092.50000, 
1093.00000, 
1093.50000, 
1094.00000, 
1094.50000, 
1095.00000, 
1095.50000, 
1096.00000, 
1096.50000, 
1097.00000, 
1097.50000, 
1098.00000, 
1098.50000, 
1099.00000, 
1099.50000, 
1100.00000, 
