"10%H2 - RawData"
"Wavelength nm.","Abs."
300.00000,3.924347
300.50000, 
301.00000,3.952805
301.50000, 
302.00000,3.986526
302.50000, 
303.00000,3.996399
303.50000, 
304.00000,3.985565
304.50000, 
305.00000,3.991928
305.50000, 
306.00000,4.000000
306.50000, 
307.00000,4.000000
307.50000, 
308.00000,3.942596
308.50000, 
309.00000,4.000000
309.50000, 
310.00000,3.949142
310.50000, 
311.00000,3.976974
311.50000, 
312.00000,3.930542
312.50000, 
313.00000,3.956284
313.50000, 
314.00000,3.922119
314.50000, 
315.00000,3.901291
315.50000, 
316.00000,3.954254
316.50000, 
317.00000,3.996323
317.50000, 
318.00000,3.965973
318.50000, 
319.00000,3.956512
319.50000, 
320.00000,3.966995
320.50000, 
321.00000,3.995560
321.50000, 
322.00000,3.909500
322.50000, 
323.00000,3.973679
323.50000, 
324.00000,3.907043
324.50000, 
325.00000,3.955978
325.50000, 
326.00000,4.000000
326.50000, 
327.00000,3.927567
327.50000, 
328.00000,3.944183
328.50000, 
329.00000,3.998337
329.50000, 
330.00000,4.000000
330.50000, 
331.00000,3.992523
331.50000, 
332.00000,3.992371
332.50000, 
333.00000,3.995880
333.50000, 
334.00000,3.997498
334.50000, 
335.00000,3.988235
335.50000, 
336.00000,4.000000
336.50000, 
337.00000,3.959259
337.50000, 
338.00000,4.000000
338.50000, 
339.00000,4.000000
339.50000, 
340.00000,3.953583
340.50000, 
341.00000,3.839874
341.50000, 
342.00000,3.872437
342.50000, 
343.00000,3.964493
343.50000, 
344.00000,3.986084
344.50000, 
345.00000,4.000000
345.50000, 
346.00000,3.992752
346.50000, 
347.00000,3.945557
347.50000, 
348.00000,3.910156
348.50000, 
349.00000,4.000000
349.50000, 
350.00000,3.994278
350.50000, 
351.00000,4.000000
351.50000, 
352.00000,3.983582
352.50000, 
353.00000,4.000000
353.50000, 
354.00000,4.000000
354.50000, 
355.00000,3.956848
355.50000, 
356.00000,3.970673
356.50000, 
357.00000,3.981186
357.50000, 
358.00000,3.941223
358.50000, 
359.00000,4.000000
359.50000, 
360.00000,3.951874
360.50000, 
361.00000,3.984741
361.50000, 
362.00000,3.989273
362.50000, 
363.00000,3.951126
363.50000, 
364.00000,4.000000
364.50000, 
365.00000,4.000000
365.50000, 
366.00000,4.000000
366.50000, 
367.00000,3.861740
367.50000, 
368.00000,3.958893
368.50000, 
369.00000,3.950531
369.50000, 
370.00000,3.989914
370.50000, 
371.00000,3.983566
371.50000, 
372.00000,3.756165
372.50000, 
373.00000,3.934982
373.50000, 
374.00000,3.879517
374.50000, 
375.00000,3.987137
375.50000, 
376.00000,4.000000
376.50000, 
377.00000,3.985489
377.50000, 
378.00000,3.990799
378.50000, 
379.00000,3.974152
379.50000, 
380.00000,3.967697
380.50000, 
381.00000,3.779007
381.50000, 
382.00000,3.518433
382.50000, 
383.00000,3.294403
383.50000, 
384.00000,3.069534
384.50000, 
385.00000,2.806641
385.50000, 
386.00000,2.599640
386.50000, 
387.00000,2.417114
387.50000, 
388.00000,2.250336
388.50000, 
389.00000,2.094330
389.50000, 
390.00000,1.956665
390.50000, 
391.00000,1.833435
391.50000, 
392.00000,1.722260
392.50000, 
393.00000,1.620651
393.50000, 
394.00000,1.528107
394.50000, 
395.00000,1.445724
395.50000, 
396.00000,1.371933
396.50000, 
397.00000,1.308075
397.50000, 
398.00000,1.252396
398.50000, 
399.00000,1.203018
399.50000, 
400.00000,1.161102
400.50000, 
401.00000,1.124451
401.50000, 
402.00000,1.093384
402.50000, 
403.00000,1.068207
403.50000, 
404.00000,1.046021
404.50000, 
405.00000,1.028275
405.50000, 
406.00000,1.013641
406.50000, 
407.00000,1.001175
407.50000, 
408.00000,0.990707
408.50000, 
409.00000,0.982391
409.50000, 
410.00000,0.974442
410.50000, 
411.00000,0.968353
411.50000, 
412.00000,0.963181
412.50000, 
413.00000,0.958755
413.50000, 
414.00000,0.954575
414.50000, 
415.00000,0.950882
415.50000, 
416.00000,0.947754
416.50000, 
417.00000,0.944672
417.50000, 
418.00000,0.942337
418.50000, 
419.00000,0.940002
419.50000, 
420.00000,0.937820
420.50000, 
421.00000,0.935699
421.50000, 
422.00000,0.933701
422.50000, 
423.00000,0.931946
423.50000, 
424.00000,0.930588
424.50000, 
425.00000,0.928986
425.50000, 
426.00000,0.927811
426.50000, 
427.00000,0.926529
427.50000, 
428.00000,0.925476
428.50000, 
429.00000,0.924698
429.50000, 
430.00000,0.923691
430.50000, 
431.00000,0.923157
431.50000, 
432.00000,0.922714
432.50000, 
433.00000,0.921997
433.50000, 
434.00000,0.921646
434.50000, 
435.00000,0.921066
435.50000, 
436.00000,0.920273
436.50000, 
437.00000,0.919601
437.50000, 
438.00000,0.918793
438.50000, 
439.00000,0.917938
439.50000, 
440.00000,0.917175
440.50000, 
441.00000,0.916199
441.50000, 
442.00000,0.915482
442.50000, 
443.00000,0.914749
443.50000, 
444.00000,0.913849
444.50000, 
445.00000,0.913376
445.50000, 
446.00000,0.912766
446.50000, 
447.00000,0.911926
447.50000, 
448.00000,0.911316
448.50000, 
449.00000,0.910690
449.50000, 
450.00000,0.910202
450.50000, 
451.00000,0.909668
451.50000, 
452.00000,0.909119
452.50000, 
453.00000,0.908707
453.50000, 
454.00000,0.908203
454.50000, 
455.00000,0.907852
455.50000, 
456.00000,0.907425
456.50000, 
457.00000,0.906982
457.50000, 
458.00000,0.906525
458.50000, 
459.00000,0.906342
459.50000, 
460.00000,0.906113
460.50000, 
461.00000,0.905853
461.50000, 
462.00000,0.905609
462.50000, 
463.00000,0.905426
463.50000, 
464.00000,0.905334
464.50000, 
465.00000,0.905228
465.50000, 
466.00000,0.905212
466.50000, 
467.00000,0.905319
467.50000, 
468.00000,0.905502
468.50000, 
469.00000,0.905899
469.50000, 
470.00000,0.906494
470.50000, 
471.00000,0.907623
471.50000, 
472.00000,0.909790
472.50000, 
473.00000,0.913040
473.50000, 
474.00000,0.914383
474.50000, 
475.00000,0.912460
475.50000, 
476.00000,0.909943
476.50000, 
477.00000,0.906845
477.50000, 
478.00000,0.903122
478.50000, 
479.00000,0.898499
479.50000, 
480.00000,0.893326
480.50000, 
481.00000,0.887207
481.50000, 
482.00000,0.880325
482.50000, 
483.00000,0.872665
483.50000, 
484.00000,0.863907
484.50000, 
485.00000,0.854904
485.50000, 
486.00000,0.845398
486.50000, 
487.00000,0.835739
487.50000, 
488.00000,0.826752
488.50000, 
489.00000,0.818741
489.50000, 
490.00000,0.811722
490.50000, 
491.00000,0.805923
491.50000, 
492.00000,0.801331
492.50000, 
493.00000,0.798004
493.50000, 
494.00000,0.795807
494.50000, 
495.00000,0.794632
495.50000, 
496.00000,0.794479
496.50000, 
497.00000,0.794891
497.50000, 
498.00000,0.795883
498.50000, 
499.00000,0.797241
499.50000, 
500.00000,0.798615
500.50000, 
501.00000,0.800339
501.50000, 
502.00000,0.802399
502.50000, 
503.00000,0.804092
503.50000, 
504.00000,0.805908
504.50000, 
505.00000,0.807602
505.50000, 
506.00000,0.809311
506.50000, 
507.00000,0.810638
507.50000, 
508.00000,0.811966
508.50000, 
509.00000,0.813080
509.50000, 
510.00000,0.814102
510.50000, 
511.00000,0.814911
511.50000, 
512.00000,0.815613
512.50000, 
513.00000,0.816284
513.50000, 
514.00000,0.816727
514.50000, 
515.00000,0.816986
515.50000, 
516.00000,0.817200
516.50000, 
517.00000,0.817368
517.50000, 
518.00000,0.817490
518.50000, 
519.00000,0.817459
519.50000, 
520.00000,0.817261
520.50000, 
521.00000,0.817078
521.50000, 
522.00000,0.816833
522.50000, 
523.00000,0.816406
523.50000, 
524.00000,0.815948
524.50000, 
525.00000,0.815613
525.50000, 
526.00000,0.815125
526.50000, 
527.00000,0.814636
527.50000, 
528.00000,0.814041
528.50000, 
529.00000,0.813293
529.50000, 
530.00000,0.812607
530.50000, 
531.00000,0.812027
531.50000, 
532.00000,0.811493
532.50000, 
533.00000,0.810822
533.50000, 
534.00000,0.810089
534.50000, 
535.00000,0.809418
535.50000, 
536.00000,0.808426
536.50000, 
537.00000,0.807251
537.50000, 
538.00000,0.806519
538.50000, 
539.00000,0.805771
539.50000, 
540.00000,0.805008
540.50000, 
541.00000,0.804321
541.50000, 
542.00000,0.803497
542.50000, 
543.00000,0.802551
543.50000, 
544.00000,0.801788
544.50000, 
545.00000,0.800934
545.50000, 
546.00000,0.799911
546.50000, 
547.00000,0.798859
547.50000, 
548.00000,0.797836
548.50000, 
549.00000,0.796707
549.50000, 
550.00000,0.795456
550.50000, 
551.00000,0.794327
551.50000, 
552.00000,0.792969
552.50000, 
553.00000,0.791473
553.50000, 
554.00000,0.789963
554.50000, 
555.00000,0.788437
555.50000, 
556.00000,0.786697
556.50000, 
557.00000,0.784912
557.50000, 
558.00000,0.783066
558.50000, 
559.00000,0.781158
559.50000, 
560.00000,0.779175
560.50000, 
561.00000,0.777054
561.50000, 
562.00000,0.775040
562.50000, 
563.00000,0.772995
563.50000, 
564.00000,0.770782
564.50000, 
565.00000,0.768524
565.50000, 
566.00000,0.766296
566.50000, 
567.00000,0.764038
567.50000, 
568.00000,0.761734
568.50000, 
569.00000,0.759460
569.50000, 
570.00000,0.757095
570.50000, 
571.00000,0.754791
571.50000, 
572.00000,0.752426
572.50000, 
573.00000,0.750153
573.50000, 
574.00000,0.747894
574.50000, 
575.00000,0.745529
575.50000, 
576.00000,0.743179
576.50000, 
577.00000,0.740921
577.50000, 
578.00000,0.738708
578.50000, 
579.00000,0.736526
579.50000, 
580.00000,0.734451
580.50000, 
581.00000,0.732422
581.50000, 
582.00000,0.730469
582.50000, 
583.00000,0.728653
583.50000, 
584.00000,0.726883
584.50000, 
585.00000,0.725189
585.50000, 
586.00000,0.723511
586.50000, 
587.00000,0.721939
587.50000, 
588.00000,0.720383
588.50000, 
589.00000,0.718887
589.50000, 
590.00000,0.717560
590.50000, 
591.00000,0.716141
591.50000, 
592.00000,0.714874
592.50000, 
593.00000,0.713425
593.50000, 
594.00000,0.711929
594.50000, 
595.00000,0.710419
595.50000, 
596.00000,0.708954
596.50000, 
597.00000,0.707367
597.50000, 
598.00000,0.705856
598.50000, 
599.00000,0.704178
599.50000, 
600.00000,0.702454
600.50000, 
601.00000,0.700516
601.50000, 
602.00000,0.698441
602.50000, 
603.00000,0.696289
603.50000, 
604.00000,0.693909
604.50000, 
605.00000,0.691483
605.50000, 
606.00000,0.688980
606.50000, 
607.00000,0.686264
607.50000, 
608.00000,0.683502
608.50000, 
609.00000,0.680542
609.50000, 
610.00000,0.677582
610.50000, 
611.00000,0.674667
611.50000, 
612.00000,0.671387
612.50000, 
613.00000,0.668106
613.50000, 
614.00000,0.664825
614.50000, 
615.00000,0.661407
615.50000, 
616.00000,0.657974
616.50000, 
617.00000,0.654419
617.50000, 
618.00000,0.650787
618.50000, 
619.00000,0.647125
619.50000, 
620.00000,0.643463
620.50000, 
621.00000,0.639664
621.50000, 
622.00000,0.635895
622.50000, 
623.00000,0.632294
623.50000, 
624.00000,0.628494
624.50000, 
625.00000,0.624695
625.50000, 
626.00000,0.621094
626.50000, 
627.00000,0.617508
627.50000, 
628.00000,0.614136
628.50000, 
629.00000,0.610886
629.50000, 
630.00000,0.607895
630.50000, 
631.00000,0.605347
631.50000, 
632.00000,0.603592
632.50000, 
633.00000,0.603119
633.50000, 
634.00000,0.604874
634.50000, 
635.00000,0.601578
635.50000, 
636.00000,0.590729
636.50000, 
637.00000,0.577942
637.50000, 
638.00000,0.564590
638.50000, 
639.00000,0.549423
639.50000, 
640.00000,0.534088
640.50000, 
641.00000,0.518875
641.50000, 
642.00000,0.504501
642.50000, 
643.00000,0.492096
643.50000, 
644.00000,0.481613
644.50000, 
645.00000,0.473724
645.50000, 
646.00000,0.467926
646.50000, 
647.00000,0.464432
647.50000, 
648.00000,0.462646
648.50000, 
649.00000,0.462463
649.50000, 
650.00000,0.463120
650.50000, 
651.00000,0.464478
651.50000, 
652.00000,0.466110
652.50000, 
653.00000,0.468094
653.50000, 
654.00000,0.470245
654.50000, 
655.00000,0.472168
655.50000, 
656.00000,0.473984
656.50000, 
657.00000,0.475647
657.50000, 
658.00000,0.477325
658.50000, 
659.00000,0.478607
659.50000, 
660.00000,0.479965
660.50000, 
661.00000,0.480942
661.50000, 
662.00000,0.481903
662.50000, 
663.00000,0.482590
663.50000, 
664.00000,0.483292
664.50000, 
665.00000,0.483795
665.50000, 
666.00000,0.484406
666.50000, 
667.00000,0.484695
667.50000, 
668.00000,0.485123
668.50000, 
669.00000,0.485260
669.50000, 
670.00000,0.485519
670.50000, 
671.00000,0.485565
671.50000, 
672.00000,0.485565
672.50000, 
673.00000,0.485550
673.50000, 
674.00000,0.485474
674.50000, 
675.00000,0.485413
675.50000, 
676.00000,0.485077
676.50000, 
677.00000,0.484940
677.50000, 
678.00000,0.484634
678.50000, 
679.00000,0.484314
679.50000, 
680.00000,0.483795
680.50000, 
681.00000,0.483475
681.50000, 
682.00000,0.482941
682.50000, 
683.00000,0.482651
683.50000, 
684.00000,0.481995
684.50000, 
685.00000,0.481583
685.50000, 
686.00000,0.481110
686.50000, 
687.00000,0.480621
687.50000, 
688.00000,0.480087
688.50000, 
689.00000,0.479599
689.50000, 
690.00000,0.479004
690.50000, 
691.00000,0.478363
691.50000, 
692.00000,0.477814
692.50000, 
693.00000,0.477173
693.50000, 
694.00000,0.476715
694.50000, 
695.00000,0.475937
695.50000, 
696.00000,0.475357
696.50000, 
697.00000,0.474594
697.50000, 
698.00000,0.474091
698.50000, 
699.00000,0.473190
699.50000, 
700.00000,0.472626
700.50000, 
701.00000,0.471649
701.50000, 
702.00000,0.471161
702.50000, 
703.00000,0.470230
703.50000, 
704.00000,0.469711
704.50000, 
705.00000,0.468796
705.50000, 
706.00000,0.468140
706.50000, 
707.00000,0.467026
707.50000, 
708.00000,0.466309
708.50000, 
709.00000,0.465332
709.50000, 
710.00000,0.464447
710.50000, 
711.00000,0.463562
711.50000, 
712.00000,0.462326
712.50000, 
713.00000,0.461609
713.50000, 
714.00000,0.460236
714.50000, 
715.00000,0.459290
715.50000, 
716.00000,0.457916
716.50000, 
717.00000,0.456894
717.50000, 
718.00000,0.455490
718.50000, 
719.00000,0.454376
719.50000, 
720.00000,0.453247
720.50000, 
721.00000,0.451965
721.50000, 
722.00000,0.450943
722.50000, 
723.00000,0.449509
723.50000, 
724.00000,0.448624
724.50000, 
725.00000,0.447144
725.50000, 
726.00000,0.446198
726.50000, 
727.00000,0.444916
727.50000, 
728.00000,0.443878
728.50000, 
729.00000,0.442810
729.50000, 
730.00000,0.441559
730.50000, 
731.00000,0.440720
731.50000, 
732.00000,0.439346
732.50000, 
733.00000,0.438599
733.50000, 
734.00000,0.437424
734.50000, 
735.00000,0.436417
735.50000, 
736.00000,0.435532
736.50000, 
737.00000,0.434372
737.50000, 
738.00000,0.433624
738.50000, 
739.00000,0.432373
739.50000, 
740.00000,0.431473
740.50000, 
741.00000,0.430496
741.50000, 
742.00000,0.429398
742.50000, 
743.00000,0.428665
743.50000, 
744.00000,0.427368
744.50000, 
745.00000,0.426620
745.50000, 
746.00000,0.425323
746.50000, 
747.00000,0.424393
747.50000, 
748.00000,0.423309
748.50000, 
749.00000,0.422134
749.50000, 
750.00000,0.421448
750.50000, 
751.00000,0.420120
751.50000, 
752.00000,0.419357
752.50000, 
753.00000,0.418457
753.50000, 
754.00000,0.417389
754.50000, 
755.00000,0.416779
755.50000, 
756.00000,0.415543
756.50000, 
757.00000,0.414795
757.50000, 
758.00000,0.414017
758.50000, 
759.00000,0.412811
759.50000, 
760.00000,0.412415
760.50000, 
761.00000,0.411255
761.50000, 
762.00000,0.410400
762.50000, 
763.00000,0.409744
763.50000, 
764.00000,0.408493
764.50000, 
765.00000,0.407974
765.50000, 
766.00000,0.406784
766.50000, 
767.00000,0.406052
767.50000, 
768.00000,0.405334
768.50000, 
769.00000,0.404236
769.50000, 
770.00000,0.403625
770.50000, 
771.00000,0.402573
771.50000, 
772.00000,0.401749
772.50000, 
773.00000,0.401001
773.50000, 
774.00000,0.399948
774.50000, 
775.00000,0.399384
775.50000, 
776.00000,0.398453
776.50000, 
777.00000,0.397491
777.50000, 
778.00000,0.397110
778.50000, 
779.00000,0.395859
779.50000, 
780.00000,0.395218
780.50000, 
781.00000,0.394501
781.50000, 
782.00000,0.393570
782.50000, 
783.00000,0.393082
783.50000, 
784.00000,0.392197
784.50000, 
785.00000,0.391235
785.50000, 
786.00000,0.390717
786.50000, 
787.00000,0.389664
787.50000, 
788.00000,0.388931
788.50000, 
789.00000,0.388290
789.50000, 
790.00000,0.387192
790.50000, 
791.00000,0.386734
791.50000, 
792.00000,0.385727
792.50000, 
793.00000,0.384796
793.50000, 
794.00000,0.384186
794.50000, 
795.00000,0.383163
795.50000, 
796.00000,0.382324
796.50000, 
797.00000,0.381851
797.50000, 
798.00000,0.380554
798.50000, 
799.00000,0.380127
799.50000, 
800.00000,0.379211
800.50000, 
801.00000,0.378189
801.50000, 
802.00000,0.377518
802.50000, 
803.00000,0.376709
803.50000, 
804.00000,0.375504
804.50000, 
805.00000,0.375061
805.50000, 
806.00000,0.373932
806.50000, 
807.00000,0.373016
807.50000, 
808.00000,0.372360
808.50000, 
809.00000,0.371216
809.50000, 
810.00000,0.369980
810.50000, 
811.00000,0.369232
811.50000, 
812.00000,0.367798
812.50000, 
813.00000,0.367004
813.50000, 
814.00000,0.366043
814.50000, 
815.00000,0.364822
815.50000, 
816.00000,0.363708
816.50000, 
817.00000,0.362686
817.50000, 
818.00000,0.361069
818.50000, 
819.00000,0.360245
819.50000, 
820.00000,0.359070
820.50000, 
821.00000,0.357559
821.50000, 
822.00000,0.356552
822.50000, 
823.00000,0.355286
823.50000, 
824.00000,0.353806
824.50000, 
825.00000,0.352722
825.50000, 
826.00000,0.351471
826.50000, 
827.00000,0.349792
827.50000, 
828.00000,0.348694
828.50000, 
829.00000,0.347229
829.50000, 
830.00000,0.345764
830.50000, 
831.00000,0.344360
831.50000, 
832.00000,0.343109
832.50000, 
833.00000,0.341232
833.50000, 
834.00000,0.339951
834.50000, 
835.00000,0.338440
835.50000, 
836.00000,0.336731
836.50000, 
837.00000,0.335220
837.50000, 
838.00000,0.333649
838.50000, 
839.00000,0.331757
839.50000, 
840.00000,0.330338
840.50000, 
841.00000,0.328888
841.50000, 
842.00000,0.326904
842.50000, 
843.00000,0.325516
843.50000, 
844.00000,0.323807
844.50000, 
845.00000,0.321991
845.50000, 
846.00000,0.320282
846.50000, 
847.00000,0.318909
847.50000, 
848.00000,0.317032
848.50000, 
849.00000,0.315323
849.50000, 
850.00000,0.313873
850.50000, 
851.00000,0.311951
851.50000, 
852.00000,0.310425
852.50000, 
853.00000,0.308731
853.50000, 
854.00000,0.307068
854.50000, 
855.00000,0.305038
855.50000, 
856.00000,0.303558
856.50000, 
857.00000,0.301788
857.50000, 
858.00000,0.299744
858.50000, 
859.00000,0.298264
859.50000, 
860.00000,0.296463
860.50000, 
861.00000,0.294800
861.50000, 
862.00000,0.292984
862.50000, 
863.00000,0.291412
863.50000, 
864.00000,0.289444
864.50000, 
865.00000,0.287872
865.50000, 
866.00000,0.286377
866.50000, 
867.00000,0.284653
867.50000, 
868.00000,0.283234
868.50000, 
869.00000,0.281647
869.50000, 
870.00000,0.280182
870.50000, 
871.00000,0.278473
871.50000, 
872.00000,0.277008
872.50000, 
873.00000,0.275589
873.50000, 
874.00000,0.273911
874.50000, 
875.00000,0.272659
875.50000, 
876.00000,0.271179
876.50000, 
877.00000,0.269775
877.50000, 
878.00000,0.268280
878.50000, 
879.00000,0.266830
879.50000, 
880.00000,0.265442
880.50000, 
881.00000,0.263794
881.50000, 
882.00000,0.262650
882.50000, 
883.00000,0.261200
883.50000, 
884.00000,0.259888
884.50000, 
885.00000,0.258560
885.50000, 
886.00000,0.257217
886.50000, 
887.00000,0.256226
887.50000, 
888.00000,0.254791
888.50000, 
889.00000,0.253708
889.50000, 
890.00000,0.252609
890.50000, 
891.00000,0.251434
891.50000, 
892.00000,0.250534
892.50000, 
893.00000,0.249420
893.50000, 
894.00000,0.248428
894.50000, 
895.00000,0.247467
895.50000, 
896.00000,0.246490
896.50000, 
897.00000,0.245697
897.50000, 
898.00000,0.244659
898.50000, 
899.00000,0.243912
899.50000, 
900.00000,0.243469
900.50000, 
901.00000, 
901.50000, 
902.00000, 
902.50000, 
903.00000, 
903.50000, 
904.00000, 
904.50000, 
905.00000, 
905.50000, 
906.00000, 
906.50000, 
907.00000, 
907.50000, 
908.00000, 
908.50000, 
909.00000, 
909.50000, 
910.00000, 
910.50000, 
911.00000, 
911.50000, 
912.00000, 
912.50000, 
913.00000, 
913.50000, 
914.00000, 
914.50000, 
915.00000, 
915.50000, 
916.00000, 
916.50000, 
917.00000, 
917.50000, 
918.00000, 
918.50000, 
919.00000, 
919.50000, 
920.00000, 
920.50000, 
921.00000, 
921.50000, 
922.00000, 
922.50000, 
923.00000, 
923.50000, 
924.00000, 
924.50000, 
925.00000, 
925.50000, 
926.00000, 
926.50000, 
927.00000, 
927.50000, 
928.00000, 
928.50000, 
929.00000, 
929.50000, 
930.00000, 
930.50000, 
931.00000, 
931.50000, 
932.00000, 
932.50000, 
933.00000, 
933.50000, 
934.00000, 
934.50000, 
935.00000, 
935.50000, 
936.00000, 
936.50000, 
937.00000, 
937.50000, 
938.00000, 
938.50000, 
939.00000, 
939.50000, 
940.00000, 
940.50000, 
941.00000, 
941.50000, 
942.00000, 
942.50000, 
943.00000, 
943.50000, 
944.00000, 
944.50000, 
945.00000, 
945.50000, 
946.00000, 
946.50000, 
947.00000, 
947.50000, 
948.00000, 
948.50000, 
949.00000, 
949.50000, 
950.00000, 
950.50000, 
951.00000, 
951.50000, 
952.00000, 
952.50000, 
953.00000, 
953.50000, 
954.00000, 
954.50000, 
955.00000, 
955.50000, 
956.00000, 
956.50000, 
957.00000, 
957.50000, 
958.00000, 
958.50000, 
959.00000, 
959.50000, 
960.00000, 
960.50000, 
961.00000, 
961.50000, 
962.00000, 
962.50000, 
963.00000, 
963.50000, 
964.00000, 
964.50000, 
965.00000, 
965.50000, 
966.00000, 
966.50000, 
967.00000, 
967.50000, 
968.00000, 
968.50000, 
969.00000, 
969.50000, 
970.00000, 
970.50000, 
971.00000, 
971.50000, 
972.00000, 
972.50000, 
973.00000, 
973.50000, 
974.00000, 
974.50000, 
975.00000, 
975.50000, 
976.00000, 
976.50000, 
977.00000, 
977.50000, 
978.00000, 
978.50000, 
979.00000, 
979.50000, 
980.00000, 
980.50000, 
981.00000, 
981.50000, 
982.00000, 
982.50000, 
983.00000, 
983.50000, 
984.00000, 
984.50000, 
985.00000, 
985.50000, 
986.00000, 
986.50000, 
987.00000, 
987.50000, 
988.00000, 
988.50000, 
989.00000, 
989.50000, 
990.00000, 
990.50000, 
991.00000, 
991.50000, 
992.00000, 
992.50000, 
993.00000, 
993.50000, 
994.00000, 
994.50000, 
995.00000, 
995.50000, 
996.00000, 
996.50000, 
997.00000, 
997.50000, 
998.00000, 
998.50000, 
999.00000, 
999.50000, 
1000.00000, 
1000.50000, 
1001.00000, 
1001.50000, 
1002.00000, 
1002.50000, 
1003.00000, 
1003.50000, 
1004.00000, 
1004.50000, 
1005.00000, 
1005.50000, 
1006.00000, 
1006.50000, 
1007.00000, 
1007.50000, 
1008.00000, 
1008.50000, 
1009.00000, 
1009.50000, 
1010.00000, 
1010.50000, 
1011.00000, 
1011.50000, 
1012.00000, 
1012.50000, 
1013.00000, 
1013.50000, 
1014.00000, 
1014.50000, 
1015.00000, 
1015.50000, 
1016.00000, 
1016.50000, 
1017.00000, 
1017.50000, 
1018.00000, 
1018.50000, 
1019.00000, 
1019.50000, 
1020.00000, 
1020.50000, 
1021.00000, 
1021.50000, 
1022.00000, 
1022.50000, 
1023.00000, 
1023.50000, 
1024.00000, 
1024.50000, 
1025.00000, 
1025.50000, 
1026.00000, 
1026.50000, 
1027.00000, 
1027.50000, 
1028.00000, 
1028.50000, 
1029.00000, 
1029.50000, 
1030.00000, 
1030.50000, 
1031.00000, 
1031.50000, 
1032.00000, 
1032.50000, 
1033.00000, 
1033.50000, 
1034.00000, 
1034.50000, 
1035.00000, 
1035.50000, 
1036.00000, 
1036.50000, 
1037.00000, 
1037.50000, 
1038.00000, 
1038.50000, 
1039.00000, 
1039.50000, 
1040.00000, 
1040.50000, 
1041.00000, 
1041.50000, 
1042.00000, 
1042.50000, 
1043.00000, 
1043.50000, 
1044.00000, 
1044.50000, 
1045.00000, 
1045.50000, 
1046.00000, 
1046.50000, 
1047.00000, 
1047.50000, 
1048.00000, 
1048.50000, 
1049.00000, 
1049.50000, 
1050.00000, 
1050.50000, 
1051.00000, 
1051.50000, 
1052.00000, 
1052.50000, 
1053.00000, 
1053.50000, 
1054.00000, 
1054.50000, 
1055.00000, 
1055.50000, 
1056.00000, 
1056.50000, 
1057.00000, 
1057.50000, 
1058.00000, 
1058.50000, 
1059.00000, 
1059.50000, 
1060.00000, 
1060.50000, 
1061.00000, 
1061.50000, 
1062.00000, 
1062.50000, 
1063.00000, 
1063.50000, 
1064.00000, 
1064.50000, 
1065.00000, 
1065.50000, 
1066.00000, 
1066.50000, 
1067.00000, 
1067.50000, 
1068.00000, 
1068.50000, 
1069.00000, 
1069.50000, 
1070.00000, 
1070.50000, 
1071.00000, 
1071.50000, 
1072.00000, 
1072.50000, 
1073.00000, 
1073.50000, 
1074.00000, 
1074.50000, 
1075.00000, 
1075.50000, 
1076.00000, 
1076.50000, 
1077.00000, 
1077.50000, 
1078.00000, 
1078.50000, 
1079.00000, 
1079.50000, 
1080.00000, 
1080.50000, 
1081.00000, 
1081.50000, 
1082.00000, 
1082.50000, 
1083.00000, 
1083.50000, 
1084.00000, 
1084.50000, 
1085.00000, 
1085.50000, 
1086.00000, 
1086.50000, 
1087.00000, 
1087.50000, 
1088.00000, 
1088.50000, 
1089.00000, 
1089.50000, 
1090.00000, 
1090.50000, 
1091.00000, 
1091.50000, 
1092.00000, 
1092.50000, 
1093.00000, 
1093.50000, 
1094.00000, 
1094.50000, 
1095.00000, 
1095.50000, 
1096.00000, 
1096.50000, 
1097.00000, 
1097.50000, 
1098.00000, 
1098.50000, 
1099.00000, 
1099.50000, 
1100.00000, 
