"10%H - RawData"
"Wavelength nm.","Abs."
300.00000,3.990952
300.50000, 
301.00000,3.993683
301.50000, 
302.00000,3.988144
302.50000, 
303.00000,3.990356
303.50000, 
304.00000,3.921646
304.50000, 
305.00000,3.986252
305.50000, 
306.00000,3.934189
306.50000, 
307.00000,3.985077
307.50000, 
308.00000,4.000000
308.50000, 
309.00000,3.906662
309.50000, 
310.00000,3.977249
310.50000, 
311.00000,3.979980
311.50000, 
312.00000,3.919708
312.50000, 
313.00000,3.859741
313.50000, 
314.00000,3.972397
314.50000, 
315.00000,3.992065
315.50000, 
316.00000,4.000000
316.50000, 
317.00000,3.919388
317.50000, 
318.00000,3.984131
318.50000, 
319.00000,3.967117
319.50000, 
320.00000,4.000000
320.50000, 
321.00000,3.991135
321.50000, 
322.00000,3.972046
322.50000, 
323.00000,3.969238
323.50000, 
324.00000,3.967117
324.50000, 
325.00000,3.887955
325.50000, 
326.00000,3.877075
326.50000, 
327.00000,3.918350
327.50000, 
328.00000,3.894104
328.50000, 
329.00000,3.984604
329.50000, 
330.00000,3.941437
330.50000, 
331.00000,3.998810
331.50000, 
332.00000,3.961975
332.50000, 
333.00000,3.975403
333.50000, 
334.00000,3.881958
334.50000, 
335.00000,3.913559
335.50000, 
336.00000,3.996979
336.50000, 
337.00000,3.979858
337.50000, 
338.00000,3.900391
338.50000, 
339.00000,3.814209
339.50000, 
340.00000,3.881088
340.50000, 
341.00000,3.954987
341.50000, 
342.00000,4.000000
342.50000, 
343.00000,3.937607
343.50000, 
344.00000,3.978333
344.50000, 
345.00000,3.907364
345.50000, 
346.00000,3.868881
346.50000, 
347.00000,3.707397
347.50000, 
348.00000,3.896286
348.50000, 
349.00000,3.950150
349.50000, 
350.00000,3.934448
350.50000, 
351.00000,3.923004
351.50000, 
352.00000,3.917389
352.50000, 
353.00000,3.905777
353.50000, 
354.00000,3.972534
354.50000, 
355.00000,3.896790
355.50000, 
356.00000,3.944214
356.50000, 
357.00000,3.985062
357.50000, 
358.00000,4.000000
358.50000, 
359.00000,3.985336
359.50000, 
360.00000,3.951782
360.50000, 
361.00000,3.995453
361.50000, 
362.00000,3.973740
362.50000, 
363.00000,3.973312
363.50000, 
364.00000,3.867355
364.50000, 
365.00000,3.837387
365.50000, 
366.00000,3.908173
366.50000, 
367.00000,3.939850
367.50000, 
368.00000,3.916794
368.50000, 
369.00000,3.861237
369.50000, 
370.00000,3.810684
370.50000, 
371.00000,3.873016
371.50000, 
372.00000,3.842117
372.50000, 
373.00000,3.855698
373.50000, 
374.00000,3.916672
374.50000, 
375.00000,3.844070
375.50000, 
376.00000,3.798981
376.50000, 
377.00000,3.975983
377.50000, 
378.00000,3.991074
378.50000, 
379.00000,3.748337
379.50000, 
380.00000,3.840042
380.50000, 
381.00000,3.768509
381.50000, 
382.00000,3.496262
382.50000, 
383.00000,3.211441
383.50000, 
384.00000,2.991013
384.50000, 
385.00000,2.798935
385.50000, 
386.00000,2.593155
386.50000, 
387.00000,2.411865
387.50000, 
388.00000,2.224014
388.50000, 
389.00000,2.070190
389.50000, 
390.00000,1.934555
390.50000, 
391.00000,1.806274
391.50000, 
392.00000,1.699371
392.50000, 
393.00000,1.601349
393.50000, 
394.00000,1.506409
394.50000, 
395.00000,1.425049
395.50000, 
396.00000,1.350769
396.50000, 
397.00000,1.285995
397.50000, 
398.00000,1.230377
398.50000, 
399.00000,1.181015
399.50000, 
400.00000,1.138504
400.50000, 
401.00000,1.102295
401.50000, 
402.00000,1.071609
402.50000, 
403.00000,1.045868
403.50000, 
404.00000,1.023743
404.50000, 
405.00000,1.006027
405.50000, 
406.00000,0.991470
406.50000, 
407.00000,0.978683
407.50000, 
408.00000,0.968948
408.50000, 
409.00000,0.960526
409.50000, 
410.00000,0.952744
410.50000, 
411.00000,0.946808
411.50000, 
412.00000,0.942093
412.50000, 
413.00000,0.937302
413.50000, 
414.00000,0.933456
414.50000, 
415.00000,0.929672
415.50000, 
416.00000,0.927032
416.50000, 
417.00000,0.924957
417.50000, 
418.00000,0.922470
418.50000, 
419.00000,0.920135
419.50000, 
420.00000,0.917862
420.50000, 
421.00000,0.915894
421.50000, 
422.00000,0.913742
422.50000, 
423.00000,0.912338
423.50000, 
424.00000,0.910599
424.50000, 
425.00000,0.909286
425.50000, 
426.00000,0.908249
426.50000, 
427.00000,0.907028
427.50000, 
428.00000,0.905975
428.50000, 
429.00000,0.905060
429.50000, 
430.00000,0.904739
430.50000, 
431.00000,0.904053
431.50000, 
432.00000,0.903519
432.50000, 
433.00000,0.902817
433.50000, 
434.00000,0.902557
434.50000, 
435.00000,0.901901
435.50000, 
436.00000,0.901352
436.50000, 
437.00000,0.900513
437.50000, 
438.00000,0.899765
438.50000, 
439.00000,0.898972
439.50000, 
440.00000,0.898285
440.50000, 
441.00000,0.897552
441.50000, 
442.00000,0.896851
442.50000, 
443.00000,0.895966
443.50000, 
444.00000,0.895309
444.50000, 
445.00000,0.894653
445.50000, 
446.00000,0.894028
446.50000, 
447.00000,0.893402
447.50000, 
448.00000,0.892929
448.50000, 
449.00000,0.892380
449.50000, 
450.00000,0.891953
450.50000, 
451.00000,0.891434
451.50000, 
452.00000,0.891052
452.50000, 
453.00000,0.890656
453.50000, 
454.00000,0.890198
454.50000, 
455.00000,0.889816
455.50000, 
456.00000,0.889481
456.50000, 
457.00000,0.889175
457.50000, 
458.00000,0.888794
458.50000, 
459.00000,0.888657
459.50000, 
460.00000,0.888412
460.50000, 
461.00000,0.888275
461.50000, 
462.00000,0.888077
462.50000, 
463.00000,0.887848
463.50000, 
464.00000,0.887924
464.50000, 
465.00000,0.887833
465.50000, 
466.00000,0.887924
466.50000, 
467.00000,0.888138
467.50000, 
468.00000,0.888535
468.50000, 
469.00000,0.888885
469.50000, 
470.00000,0.889481
470.50000, 
471.00000,0.890564
471.50000, 
472.00000,0.892609
472.50000, 
473.00000,0.896194
473.50000, 
474.00000,0.897461
474.50000, 
475.00000,0.895538
475.50000, 
476.00000,0.893112
476.50000, 
477.00000,0.890060
477.50000, 
478.00000,0.886276
478.50000, 
479.00000,0.881882
479.50000, 
480.00000,0.876709
480.50000, 
481.00000,0.870483
481.50000, 
482.00000,0.863663
482.50000, 
483.00000,0.856049
483.50000, 
484.00000,0.847214
484.50000, 
485.00000,0.838272
485.50000, 
486.00000,0.829025
486.50000, 
487.00000,0.819519
487.50000, 
488.00000,0.810486
488.50000, 
489.00000,0.802322
489.50000, 
490.00000,0.795166
490.50000, 
491.00000,0.789352
491.50000, 
492.00000,0.784836
492.50000, 
493.00000,0.781494
493.50000, 
494.00000,0.779251
494.50000, 
495.00000,0.778183
495.50000, 
496.00000,0.778061
496.50000, 
497.00000,0.778564
497.50000, 
498.00000,0.779663
498.50000, 
499.00000,0.781128
499.50000, 
500.00000,0.782684
500.50000, 
501.00000,0.784363
501.50000, 
502.00000,0.786331
502.50000, 
503.00000,0.788193
503.50000, 
504.00000,0.790039
504.50000, 
505.00000,0.791656
505.50000, 
506.00000,0.793304
506.50000, 
507.00000,0.794800
507.50000, 
508.00000,0.796234
508.50000, 
509.00000,0.797287
509.50000, 
510.00000,0.798355
510.50000, 
511.00000,0.799179
511.50000, 
512.00000,0.799911
512.50000, 
513.00000,0.800552
513.50000, 
514.00000,0.801056
514.50000, 
515.00000,0.801361
515.50000, 
516.00000,0.801636
516.50000, 
517.00000,0.801819
517.50000, 
518.00000,0.801819
518.50000, 
519.00000,0.801682
519.50000, 
520.00000,0.801590
520.50000, 
521.00000,0.801453
521.50000, 
522.00000,0.801178
522.50000, 
523.00000,0.800812
523.50000, 
524.00000,0.800430
524.50000, 
525.00000,0.800034
525.50000, 
526.00000,0.799561
526.50000, 
527.00000,0.799042
527.50000, 
528.00000,0.798462
528.50000, 
529.00000,0.797867
529.50000, 
530.00000,0.797226
530.50000, 
531.00000,0.796585
531.50000, 
532.00000,0.795959
532.50000, 
533.00000,0.795334
533.50000, 
534.00000,0.794571
534.50000, 
535.00000,0.793915
535.50000, 
536.00000,0.792770
536.50000, 
537.00000,0.791183
537.50000, 
538.00000,0.790527
538.50000, 
539.00000,0.789856
539.50000, 
540.00000,0.789093
540.50000, 
541.00000,0.788422
541.50000, 
542.00000,0.787643
542.50000, 
543.00000,0.786835
543.50000, 
544.00000,0.785950
544.50000, 
545.00000,0.785049
545.50000, 
546.00000,0.784103
546.50000, 
547.00000,0.783142
547.50000, 
548.00000,0.782166
548.50000, 
549.00000,0.781036
549.50000, 
550.00000,0.779877
550.50000, 
551.00000,0.778641
551.50000, 
552.00000,0.777206
552.50000, 
553.00000,0.775757
553.50000, 
554.00000,0.774292
554.50000, 
555.00000,0.772720
555.50000, 
556.00000,0.770966
556.50000, 
557.00000,0.769211
557.50000, 
558.00000,0.767273
558.50000, 
559.00000,0.765350
559.50000, 
560.00000,0.763489
560.50000, 
561.00000,0.761353
561.50000, 
562.00000,0.759308
562.50000, 
563.00000,0.757187
563.50000, 
564.00000,0.754913
564.50000, 
565.00000,0.752670
565.50000, 
566.00000,0.750381
566.50000, 
567.00000,0.748169
567.50000, 
568.00000,0.745804
568.50000, 
569.00000,0.743393
569.50000, 
570.00000,0.741028
570.50000, 
571.00000,0.738739
571.50000, 
572.00000,0.736374
572.50000, 
573.00000,0.734085
573.50000, 
574.00000,0.731781
574.50000, 
575.00000,0.729355
575.50000, 
576.00000,0.727020
576.50000, 
577.00000,0.724762
577.50000, 
578.00000,0.722504
578.50000, 
579.00000,0.720352
579.50000, 
580.00000,0.718262
580.50000, 
581.00000,0.716202
581.50000, 
582.00000,0.714279
582.50000, 
583.00000,0.712448
583.50000, 
584.00000,0.710617
584.50000, 
585.00000,0.708954
585.50000, 
586.00000,0.707367
586.50000, 
587.00000,0.705780
587.50000, 
588.00000,0.704224
588.50000, 
589.00000,0.702805
589.50000, 
590.00000,0.701355
590.50000, 
591.00000,0.699982
591.50000, 
592.00000,0.698761
592.50000, 
593.00000,0.697372
593.50000, 
594.00000,0.695923
594.50000, 
595.00000,0.694412
595.50000, 
596.00000,0.692993
596.50000, 
597.00000,0.691483
597.50000, 
598.00000,0.689957
598.50000, 
599.00000,0.688293
599.50000, 
600.00000,0.686523
600.50000, 
601.00000,0.684616
601.50000, 
602.00000,0.682617
602.50000, 
603.00000,0.680374
603.50000, 
604.00000,0.678040
604.50000, 
605.00000,0.675583
605.50000, 
606.00000,0.672958
606.50000, 
607.00000,0.670242
607.50000, 
608.00000,0.667511
608.50000, 
609.00000,0.664627
609.50000, 
610.00000,0.661621
610.50000, 
611.00000,0.658630
611.50000, 
612.00000,0.655319
612.50000, 
613.00000,0.651962
613.50000, 
614.00000,0.648544
614.50000, 
615.00000,0.644989
615.50000, 
616.00000,0.641418
616.50000, 
617.00000,0.637894
617.50000, 
618.00000,0.634232
618.50000, 
619.00000,0.630539
619.50000, 
620.00000,0.626938
620.50000, 
621.00000,0.623123
621.50000, 
622.00000,0.619293
622.50000, 
623.00000,0.615417
623.50000, 
624.00000,0.611588
624.50000, 
625.00000,0.607819
625.50000, 
626.00000,0.604172
626.50000, 
627.00000,0.600555
627.50000, 
628.00000,0.597122
628.50000, 
629.00000,0.593826
629.50000, 
630.00000,0.590851
630.50000, 
631.00000,0.588242
631.50000, 
632.00000,0.586319
632.50000, 
633.00000,0.585800
633.50000, 
634.00000,0.587402
634.50000, 
635.00000,0.584457
635.50000, 
636.00000,0.573883
636.50000, 
637.00000,0.561172
637.50000, 
638.00000,0.547485
638.50000, 
639.00000,0.532181
639.50000, 
640.00000,0.516968
640.50000, 
641.00000,0.501678
641.50000, 
642.00000,0.487167
642.50000, 
643.00000,0.474426
643.50000, 
644.00000,0.463943
644.50000, 
645.00000,0.456055
645.50000, 
646.00000,0.450317
646.50000, 
647.00000,0.446747
647.50000, 
648.00000,0.444901
648.50000, 
649.00000,0.444687
649.50000, 
650.00000,0.445282
650.50000, 
651.00000,0.446762
651.50000, 
652.00000,0.448456
652.50000, 
653.00000,0.450424
653.50000, 
654.00000,0.452484
654.50000, 
655.00000,0.454514
655.50000, 
656.00000,0.456329
656.50000, 
657.00000,0.457977
657.50000, 
658.00000,0.459579
658.50000, 
659.00000,0.460892
659.50000, 
660.00000,0.462250
660.50000, 
661.00000,0.463181
661.50000, 
662.00000,0.464264
662.50000, 
663.00000,0.464981
663.50000, 
664.00000,0.465729
664.50000, 
665.00000,0.466171
665.50000, 
666.00000,0.466843
666.50000, 
667.00000,0.467087
667.50000, 
668.00000,0.467529
668.50000, 
669.00000,0.467697
669.50000, 
670.00000,0.467957
670.50000, 
671.00000,0.467896
671.50000, 
672.00000,0.468079
672.50000, 
673.00000,0.467987
673.50000, 
674.00000,0.467926
674.50000, 
675.00000,0.467743
675.50000, 
676.00000,0.467560
676.50000, 
677.00000,0.467300
677.50000, 
678.00000,0.467102
678.50000, 
679.00000,0.466644
679.50000, 
680.00000,0.466217
680.50000, 
681.00000,0.465775
681.50000, 
682.00000,0.465363
682.50000, 
683.00000,0.465012
683.50000, 
684.00000,0.464630
684.50000, 
685.00000,0.464035
685.50000, 
686.00000,0.463669
686.50000, 
687.00000,0.462997
687.50000, 
688.00000,0.462570
688.50000, 
689.00000,0.461990
689.50000, 
690.00000,0.461487
690.50000, 
691.00000,0.460754
691.50000, 
692.00000,0.460403
692.50000, 
693.00000,0.459656
693.50000, 
694.00000,0.459259
694.50000, 
695.00000,0.458344
695.50000, 
696.00000,0.457916
696.50000, 
697.00000,0.457047
697.50000, 
698.00000,0.456619
698.50000, 
699.00000,0.455734
699.50000, 
700.00000,0.455170
700.50000, 
701.00000,0.454224
701.50000, 
702.00000,0.453751
702.50000, 
703.00000,0.452820
703.50000, 
704.00000,0.452240
704.50000, 
705.00000,0.451355
705.50000, 
706.00000,0.450592
706.50000, 
707.00000,0.449692
707.50000, 
708.00000,0.448807
708.50000, 
709.00000,0.448013
709.50000, 
710.00000,0.446869
710.50000, 
711.00000,0.446121
711.50000, 
712.00000,0.444778
712.50000, 
713.00000,0.444077
713.50000, 
714.00000,0.442764
714.50000, 
715.00000,0.441742
715.50000, 
716.00000,0.440521
716.50000, 
717.00000,0.439285
717.50000, 
718.00000,0.438156
718.50000, 
719.00000,0.436813
719.50000, 
720.00000,0.435928
720.50000, 
721.00000,0.434464
721.50000, 
722.00000,0.433472
722.50000, 
723.00000,0.432083
723.50000, 
724.00000,0.431152
724.50000, 
725.00000,0.429810
725.50000, 
726.00000,0.428726
726.50000, 
727.00000,0.427612
727.50000, 
728.00000,0.426331
728.50000, 
729.00000,0.425507
729.50000, 
730.00000,0.424088
730.50000, 
731.00000,0.423370
731.50000, 
732.00000,0.422119
732.50000, 
733.00000,0.421112
733.50000, 
734.00000,0.420181
734.50000, 
735.00000,0.418976
735.50000, 
736.00000,0.418335
736.50000, 
737.00000,0.417053
737.50000, 
738.00000,0.416245
738.50000, 
739.00000,0.415176
739.50000, 
740.00000,0.414001
740.50000, 
741.00000,0.413361
741.50000, 
742.00000,0.412064
742.50000, 
743.00000,0.411392
743.50000, 
744.00000,0.410202
744.50000, 
745.00000,0.409302
745.50000, 
746.00000,0.408264
746.50000, 
747.00000,0.406998
747.50000, 
748.00000,0.406158
748.50000, 
749.00000,0.404831
749.50000, 
750.00000,0.404205
750.50000, 
751.00000,0.403091
751.50000, 
752.00000,0.402008
752.50000, 
753.00000,0.401382
753.50000, 
754.00000,0.400146
754.50000, 
755.00000,0.399612
755.50000, 
756.00000,0.398560
756.50000, 
757.00000,0.397537
757.50000, 
758.00000,0.396866
758.50000, 
759.00000,0.395660
759.50000, 
760.00000,0.395187
760.50000, 
761.00000,0.394211
761.50000, 
762.00000,0.393204
762.50000, 
763.00000,0.392654
763.50000, 
764.00000,0.391434
764.50000, 
765.00000,0.390732
765.50000, 
766.00000,0.389801
766.50000, 
767.00000,0.388809
767.50000, 
768.00000,0.388229
768.50000, 
769.00000,0.387192
769.50000, 
770.00000,0.386414
770.50000, 
771.00000,0.385651
771.50000, 
772.00000,0.384552
772.50000, 
773.00000,0.384003
773.50000, 
774.00000,0.382965
774.50000, 
775.00000,0.382217
775.50000, 
776.00000,0.381516
776.50000, 
777.00000,0.380417
777.50000, 
778.00000,0.380020
778.50000, 
779.00000,0.378998
779.50000, 
780.00000,0.378159
780.50000, 
781.00000,0.377594
781.50000, 
782.00000,0.376678
782.50000, 
783.00000,0.375839
783.50000, 
784.00000,0.375290
784.50000, 
785.00000,0.374161
785.50000, 
786.00000,0.373734
786.50000, 
787.00000,0.372726
787.50000, 
788.00000,0.371826
788.50000, 
789.00000,0.371307
789.50000, 
790.00000,0.370331
790.50000, 
791.00000,0.369583
791.50000, 
792.00000,0.368881
792.50000, 
793.00000,0.367798
793.50000, 
794.00000,0.367233
794.50000, 
795.00000,0.366409
795.50000, 
796.00000,0.365433
796.50000, 
797.00000,0.364975
797.50000, 
798.00000,0.363800
798.50000, 
799.00000,0.363083
799.50000, 
800.00000,0.362366
800.50000, 
801.00000,0.361389
801.50000, 
802.00000,0.360535
802.50000, 
803.00000,0.359909
803.50000, 
804.00000,0.358643
804.50000, 
805.00000,0.358032
805.50000, 
806.00000,0.357162
806.50000, 
807.00000,0.356079
807.50000, 
808.00000,0.355438
808.50000, 
809.00000,0.354416
809.50000, 
810.00000,0.353088
810.50000, 
811.00000,0.352310
811.50000, 
812.00000,0.351166
812.50000, 
813.00000,0.350082
813.50000, 
814.00000,0.349258
814.50000, 
815.00000,0.348053
815.50000, 
816.00000,0.346832
816.50000, 
817.00000,0.345886
817.50000, 
818.00000,0.344421
818.50000, 
819.00000,0.343307
819.50000, 
820.00000,0.342331
820.50000, 
821.00000,0.340759
821.50000, 
822.00000,0.339722
822.50000, 
823.00000,0.338531
823.50000, 
824.00000,0.337158
824.50000, 
825.00000,0.335831
825.50000, 
826.00000,0.334885
826.50000, 
827.00000,0.333145
827.50000, 
828.00000,0.331985
828.50000, 
829.00000,0.330658
829.50000, 
830.00000,0.329193
830.50000, 
831.00000,0.327667
831.50000, 
832.00000,0.326401
832.50000, 
833.00000,0.324692
833.50000, 
834.00000,0.323196
834.50000, 
835.00000,0.321884
835.50000, 
836.00000,0.320053
836.50000, 
837.00000,0.318558
837.50000, 
838.00000,0.316971
838.50000, 
839.00000,0.315292
839.50000, 
840.00000,0.313599
840.50000, 
841.00000,0.312317
841.50000, 
842.00000,0.310379
842.50000, 
843.00000,0.308838
843.50000, 
844.00000,0.307297
844.50000, 
845.00000,0.305542
845.50000, 
846.00000,0.303802
846.50000, 
847.00000,0.302322
847.50000, 
848.00000,0.300751
848.50000, 
849.00000,0.298782
849.50000, 
850.00000,0.297394
850.50000, 
851.00000,0.295624
851.50000, 
852.00000,0.294037
852.50000, 
853.00000,0.292328
853.50000, 
854.00000,0.290634
854.50000, 
855.00000,0.288742
855.50000, 
856.00000,0.287125
856.50000, 
857.00000,0.285583
857.50000, 
858.00000,0.283417
858.50000, 
859.00000,0.281921
859.50000, 
860.00000,0.280182
860.50000, 
861.00000,0.278595
861.50000, 
862.00000,0.276733
862.50000, 
863.00000,0.275101
863.50000, 
864.00000,0.273453
864.50000, 
865.00000,0.271698
865.50000, 
866.00000,0.270233
866.50000, 
867.00000,0.268478
867.50000, 
868.00000,0.267090
868.50000, 
869.00000,0.265518
869.50000, 
870.00000,0.263992
870.50000, 
871.00000,0.262543
871.50000, 
872.00000,0.260895
872.50000, 
873.00000,0.259552
873.50000, 
874.00000,0.257904
874.50000, 
875.00000,0.256653
875.50000, 
876.00000,0.255234
876.50000, 
877.00000,0.253738
877.50000, 
878.00000,0.252457
878.50000, 
879.00000,0.250931
879.50000, 
880.00000,0.249634
880.50000, 
881.00000,0.248001
881.50000, 
882.00000,0.246735
882.50000, 
883.00000,0.245453
883.50000, 
884.00000,0.244110
884.50000, 
885.00000,0.242889
885.50000, 
886.00000,0.241531
886.50000, 
887.00000,0.240448
887.50000, 
888.00000,0.239136
888.50000, 
889.00000,0.237976
889.50000, 
890.00000,0.237030
890.50000, 
891.00000,0.235764
891.50000, 
892.00000,0.234985
892.50000, 
893.00000,0.233917
893.50000, 
894.00000,0.232803
894.50000, 
895.00000,0.232071
895.50000, 
896.00000,0.231049
896.50000, 
897.00000,0.230118
897.50000, 
898.00000,0.229248
898.50000, 
899.00000,0.228455
899.50000, 
900.00000,0.227890
900.50000, 
901.00000, 
901.50000, 
902.00000, 
902.50000, 
903.00000, 
903.50000, 
904.00000, 
904.50000, 
905.00000, 
905.50000, 
906.00000, 
906.50000, 
907.00000, 
907.50000, 
908.00000, 
908.50000, 
909.00000, 
909.50000, 
910.00000, 
910.50000, 
911.00000, 
911.50000, 
912.00000, 
912.50000, 
913.00000, 
913.50000, 
914.00000, 
914.50000, 
915.00000, 
915.50000, 
916.00000, 
916.50000, 
917.00000, 
917.50000, 
918.00000, 
918.50000, 
919.00000, 
919.50000, 
920.00000, 
920.50000, 
921.00000, 
921.50000, 
922.00000, 
922.50000, 
923.00000, 
923.50000, 
924.00000, 
924.50000, 
925.00000, 
925.50000, 
926.00000, 
926.50000, 
927.00000, 
927.50000, 
928.00000, 
928.50000, 
929.00000, 
929.50000, 
930.00000, 
930.50000, 
931.00000, 
931.50000, 
932.00000, 
932.50000, 
933.00000, 
933.50000, 
934.00000, 
934.50000, 
935.00000, 
935.50000, 
936.00000, 
936.50000, 
937.00000, 
937.50000, 
938.00000, 
938.50000, 
939.00000, 
939.50000, 
940.00000, 
940.50000, 
941.00000, 
941.50000, 
942.00000, 
942.50000, 
943.00000, 
943.50000, 
944.00000, 
944.50000, 
945.00000, 
945.50000, 
946.00000, 
946.50000, 
947.00000, 
947.50000, 
948.00000, 
948.50000, 
949.00000, 
949.50000, 
950.00000, 
950.50000, 
951.00000, 
951.50000, 
952.00000, 
952.50000, 
953.00000, 
953.50000, 
954.00000, 
954.50000, 
955.00000, 
955.50000, 
956.00000, 
956.50000, 
957.00000, 
957.50000, 
958.00000, 
958.50000, 
959.00000, 
959.50000, 
960.00000, 
960.50000, 
961.00000, 
961.50000, 
962.00000, 
962.50000, 
963.00000, 
963.50000, 
964.00000, 
964.50000, 
965.00000, 
965.50000, 
966.00000, 
966.50000, 
967.00000, 
967.50000, 
968.00000, 
968.50000, 
969.00000, 
969.50000, 
970.00000, 
970.50000, 
971.00000, 
971.50000, 
972.00000, 
972.50000, 
973.00000, 
973.50000, 
974.00000, 
974.50000, 
975.00000, 
975.50000, 
976.00000, 
976.50000, 
977.00000, 
977.50000, 
978.00000, 
978.50000, 
979.00000, 
979.50000, 
980.00000, 
980.50000, 
981.00000, 
981.50000, 
982.00000, 
982.50000, 
983.00000, 
983.50000, 
984.00000, 
984.50000, 
985.00000, 
985.50000, 
986.00000, 
986.50000, 
987.00000, 
987.50000, 
988.00000, 
988.50000, 
989.00000, 
989.50000, 
990.00000, 
990.50000, 
991.00000, 
991.50000, 
992.00000, 
992.50000, 
993.00000, 
993.50000, 
994.00000, 
994.50000, 
995.00000, 
995.50000, 
996.00000, 
996.50000, 
997.00000, 
997.50000, 
998.00000, 
998.50000, 
999.00000, 
999.50000, 
1000.00000, 
1000.50000, 
1001.00000, 
1001.50000, 
1002.00000, 
1002.50000, 
1003.00000, 
1003.50000, 
1004.00000, 
1004.50000, 
1005.00000, 
1005.50000, 
1006.00000, 
1006.50000, 
1007.00000, 
1007.50000, 
1008.00000, 
1008.50000, 
1009.00000, 
1009.50000, 
1010.00000, 
1010.50000, 
1011.00000, 
1011.50000, 
1012.00000, 
1012.50000, 
1013.00000, 
1013.50000, 
1014.00000, 
1014.50000, 
1015.00000, 
1015.50000, 
1016.00000, 
1016.50000, 
1017.00000, 
1017.50000, 
1018.00000, 
1018.50000, 
1019.00000, 
1019.50000, 
1020.00000, 
1020.50000, 
1021.00000, 
1021.50000, 
1022.00000, 
1022.50000, 
1023.00000, 
1023.50000, 
1024.00000, 
1024.50000, 
1025.00000, 
1025.50000, 
1026.00000, 
1026.50000, 
1027.00000, 
1027.50000, 
1028.00000, 
1028.50000, 
1029.00000, 
1029.50000, 
1030.00000, 
1030.50000, 
1031.00000, 
1031.50000, 
1032.00000, 
1032.50000, 
1033.00000, 
1033.50000, 
1034.00000, 
1034.50000, 
1035.00000, 
1035.50000, 
1036.00000, 
1036.50000, 
1037.00000, 
1037.50000, 
1038.00000, 
1038.50000, 
1039.00000, 
1039.50000, 
1040.00000, 
1040.50000, 
1041.00000, 
1041.50000, 
1042.00000, 
1042.50000, 
1043.00000, 
1043.50000, 
1044.00000, 
1044.50000, 
1045.00000, 
1045.50000, 
1046.00000, 
1046.50000, 
1047.00000, 
1047.50000, 
1048.00000, 
1048.50000, 
1049.00000, 
1049.50000, 
1050.00000, 
1050.50000, 
1051.00000, 
1051.50000, 
1052.00000, 
1052.50000, 
1053.00000, 
1053.50000, 
1054.00000, 
1054.50000, 
1055.00000, 
1055.50000, 
1056.00000, 
1056.50000, 
1057.00000, 
1057.50000, 
1058.00000, 
1058.50000, 
1059.00000, 
1059.50000, 
1060.00000, 
1060.50000, 
1061.00000, 
1061.50000, 
1062.00000, 
1062.50000, 
1063.00000, 
1063.50000, 
1064.00000, 
1064.50000, 
1065.00000, 
1065.50000, 
1066.00000, 
1066.50000, 
1067.00000, 
1067.50000, 
1068.00000, 
1068.50000, 
1069.00000, 
1069.50000, 
1070.00000, 
1070.50000, 
1071.00000, 
1071.50000, 
1072.00000, 
1072.50000, 
1073.00000, 
1073.50000, 
1074.00000, 
1074.50000, 
1075.00000, 
1075.50000, 
1076.00000, 
1076.50000, 
1077.00000, 
1077.50000, 
1078.00000, 
1078.50000, 
1079.00000, 
1079.50000, 
1080.00000, 
1080.50000, 
1081.00000, 
1081.50000, 
1082.00000, 
1082.50000, 
1083.00000, 
1083.50000, 
1084.00000, 
1084.50000, 
1085.00000, 
1085.50000, 
1086.00000, 
1086.50000, 
1087.00000, 
1087.50000, 
1088.00000, 
1088.50000, 
1089.00000, 
1089.50000, 
1090.00000, 
1090.50000, 
1091.00000, 
1091.50000, 
1092.00000, 
1092.50000, 
1093.00000, 
1093.50000, 
1094.00000, 
1094.50000, 
1095.00000, 
1095.50000, 
1096.00000, 
1096.50000, 
1097.00000, 
1097.50000, 
1098.00000, 
1098.50000, 
1099.00000, 
1099.50000, 
1100.00000, 
