"20%H - RawData"
"Wavelength nm.","Abs."
300.00000,3.939789
300.50000, 
301.00000,3.958603
301.50000, 
302.00000,3.985916
302.50000, 
303.00000,3.973907
303.50000, 
304.00000,4.000000
304.50000, 
305.00000,3.989975
305.50000, 
306.00000,3.926178
306.50000, 
307.00000,3.952911
307.50000, 
308.00000,3.924881
308.50000, 
309.00000,3.952530
309.50000, 
310.00000,3.996704
310.50000, 
311.00000,3.944733
311.50000, 
312.00000,3.970276
312.50000, 
313.00000,3.996735
313.50000, 
314.00000,3.817764
314.50000, 
315.00000,3.953125
315.50000, 
316.00000,3.936737
316.50000, 
317.00000,3.991882
317.50000, 
318.00000,3.991577
318.50000, 
319.00000,3.926071
319.50000, 
320.00000,3.970428
320.50000, 
321.00000,3.864166
321.50000, 
322.00000,3.871155
322.50000, 
323.00000,3.938416
323.50000, 
324.00000,3.975525
324.50000, 
325.00000,3.890350
325.50000, 
326.00000,3.830811
326.50000, 
327.00000,3.905991
327.50000, 
328.00000,3.936310
328.50000, 
329.00000,3.967102
329.50000, 
330.00000,4.000000
330.50000, 
331.00000,3.914871
331.50000, 
332.00000,3.918594
332.50000, 
333.00000,3.850891
333.50000, 
334.00000,3.935974
334.50000, 
335.00000,3.938141
335.50000, 
336.00000,4.000000
336.50000, 
337.00000,3.972534
337.50000, 
338.00000,3.896866
338.50000, 
339.00000,3.966919
339.50000, 
340.00000,3.865311
340.50000, 
341.00000,3.937332
341.50000, 
342.00000,3.938004
342.50000, 
343.00000,3.790131
343.50000, 
344.00000,3.921448
344.50000, 
345.00000,3.964127
345.50000, 
346.00000,3.970200
346.50000, 
347.00000,3.970093
347.50000, 
348.00000,3.819656
348.50000, 
349.00000,3.988068
349.50000, 
350.00000,3.831055
350.50000, 
351.00000,3.892990
351.50000, 
352.00000,4.000000
352.50000, 
353.00000,3.900467
353.50000, 
354.00000,3.907852
354.50000, 
355.00000,3.932358
355.50000, 
356.00000,3.957748
356.50000, 
357.00000,3.946228
357.50000, 
358.00000,3.906921
358.50000, 
359.00000,3.884537
359.50000, 
360.00000,4.000000
360.50000, 
361.00000,3.990738
361.50000, 
362.00000,3.995239
362.50000, 
363.00000,3.901886
363.50000, 
364.00000,3.714798
364.50000, 
365.00000,3.872055
365.50000, 
366.00000,3.969971
366.50000, 
367.00000,4.000000
367.50000, 
368.00000,3.907578
368.50000, 
369.00000,3.948242
369.50000, 
370.00000,3.928558
370.50000, 
371.00000,3.818939
371.50000, 
372.00000,3.991623
372.50000, 
373.00000,3.991623
373.50000, 
374.00000,3.841919
374.50000, 
375.00000,3.819733
375.50000, 
376.00000,3.760880
376.50000, 
377.00000,3.929169
377.50000, 
378.00000,3.955780
378.50000, 
379.00000,3.903305
379.50000, 
380.00000,3.923462
380.50000, 
381.00000,3.696960
381.50000, 
382.00000,3.507614
382.50000, 
383.00000,3.239136
383.50000, 
384.00000,2.971375
384.50000, 
385.00000,2.827515
385.50000, 
386.00000,2.608398
386.50000, 
387.00000,2.411301
387.50000, 
388.00000,2.245270
388.50000, 
389.00000,2.084869
389.50000, 
390.00000,1.941971
390.50000, 
391.00000,1.822067
391.50000, 
392.00000,1.709641
392.50000, 
393.00000,1.611435
393.50000, 
394.00000,1.516937
394.50000, 
395.00000,1.435349
395.50000, 
396.00000,1.361969
396.50000, 
397.00000,1.296173
397.50000, 
398.00000,1.241394
398.50000, 
399.00000,1.191895
399.50000, 
400.00000,1.149780
400.50000, 
401.00000,1.113525
401.50000, 
402.00000,1.082916
402.50000, 
403.00000,1.057312
403.50000, 
404.00000,1.035507
404.50000, 
405.00000,1.017609
405.50000, 
406.00000,1.002533
406.50000, 
407.00000,0.990051
407.50000, 
408.00000,0.979843
408.50000, 
409.00000,0.971817
409.50000, 
410.00000,0.964203
410.50000, 
411.00000,0.958176
411.50000, 
412.00000,0.953232
412.50000, 
413.00000,0.948441
413.50000, 
414.00000,0.944443
414.50000, 
415.00000,0.940811
415.50000, 
416.00000,0.937164
416.50000, 
417.00000,0.933945
417.50000, 
418.00000,0.931152
418.50000, 
419.00000,0.928864
419.50000, 
420.00000,0.926834
420.50000, 
421.00000,0.924728
421.50000, 
422.00000,0.922821
422.50000, 
423.00000,0.921219
423.50000, 
424.00000,0.919647
424.50000, 
425.00000,0.917908
425.50000, 
426.00000,0.916885
426.50000, 
427.00000,0.915771
427.50000, 
428.00000,0.914780
428.50000, 
429.00000,0.913925
429.50000, 
430.00000,0.913254
430.50000, 
431.00000,0.912857
431.50000, 
432.00000,0.912125
432.50000, 
433.00000,0.911591
433.50000, 
434.00000,0.910934
434.50000, 
435.00000,0.910339
435.50000, 
436.00000,0.909790
436.50000, 
437.00000,0.908920
437.50000, 
438.00000,0.908096
438.50000, 
439.00000,0.907516
439.50000, 
440.00000,0.906784
440.50000, 
441.00000,0.905914
441.50000, 
442.00000,0.905243
442.50000, 
443.00000,0.904556
443.50000, 
444.00000,0.903732
444.50000, 
445.00000,0.903046
445.50000, 
446.00000,0.902481
446.50000, 
447.00000,0.901917
447.50000, 
448.00000,0.901398
448.50000, 
449.00000,0.900894
449.50000, 
450.00000,0.900177
450.50000, 
451.00000,0.899643
451.50000, 
452.00000,0.899200
452.50000, 
453.00000,0.898865
453.50000, 
454.00000,0.898422
454.50000, 
455.00000,0.898026
455.50000, 
456.00000,0.897766
456.50000, 
457.00000,0.897354
457.50000, 
458.00000,0.897034
458.50000, 
459.00000,0.896851
459.50000, 
460.00000,0.896744
460.50000, 
461.00000,0.896317
461.50000, 
462.00000,0.896164
462.50000, 
463.00000,0.896118
463.50000, 
464.00000,0.896027
464.50000, 
465.00000,0.895950
465.50000, 
466.00000,0.896072
466.50000, 
467.00000,0.896179
467.50000, 
468.00000,0.896423
468.50000, 
469.00000,0.896774
469.50000, 
470.00000,0.897552
470.50000, 
471.00000,0.898773
471.50000, 
472.00000,0.900726
472.50000, 
473.00000,0.904236
473.50000, 
474.00000,0.905655
474.50000, 
475.00000,0.903961
475.50000, 
476.00000,0.901428
476.50000, 
477.00000,0.898270
477.50000, 
478.00000,0.894592
478.50000, 
479.00000,0.890152
479.50000, 
480.00000,0.885040
480.50000, 
481.00000,0.878952
481.50000, 
482.00000,0.872147
482.50000, 
483.00000,0.864639
483.50000, 
484.00000,0.856033
484.50000, 
485.00000,0.847198
485.50000, 
486.00000,0.838013
486.50000, 
487.00000,0.828720
487.50000, 
488.00000,0.819748
488.50000, 
489.00000,0.811722
489.50000, 
490.00000,0.804688
490.50000, 
491.00000,0.798813
491.50000, 
492.00000,0.794312
492.50000, 
493.00000,0.790985
493.50000, 
494.00000,0.788788
494.50000, 
495.00000,0.787735
495.50000, 
496.00000,0.787628
496.50000, 
497.00000,0.788162
497.50000, 
498.00000,0.789185
498.50000, 
499.00000,0.790756
499.50000, 
500.00000,0.792313
500.50000, 
501.00000,0.794022
501.50000, 
502.00000,0.796082
502.50000, 
503.00000,0.797974
503.50000, 
504.00000,0.799774
504.50000, 
505.00000,0.801620
505.50000, 
506.00000,0.803436
506.50000, 
507.00000,0.804977
507.50000, 
508.00000,0.806519
508.50000, 
509.00000,0.807693
509.50000, 
510.00000,0.808823
510.50000, 
511.00000,0.809814
511.50000, 
512.00000,0.810608
512.50000, 
513.00000,0.811371
513.50000, 
514.00000,0.812012
514.50000, 
515.00000,0.812393
515.50000, 
516.00000,0.812714
516.50000, 
517.00000,0.813004
517.50000, 
518.00000,0.813202
518.50000, 
519.00000,0.813339
519.50000, 
520.00000,0.813263
520.50000, 
521.00000,0.813187
521.50000, 
522.00000,0.813049
522.50000, 
523.00000,0.812881
523.50000, 
524.00000,0.812500
524.50000, 
525.00000,0.812210
525.50000, 
526.00000,0.811890
526.50000, 
527.00000,0.811539
527.50000, 
528.00000,0.811066
528.50000, 
529.00000,0.810547
529.50000, 
530.00000,0.810013
530.50000, 
531.00000,0.809433
531.50000, 
532.00000,0.808884
532.50000, 
533.00000,0.808365
533.50000, 
534.00000,0.807831
534.50000, 
535.00000,0.807190
535.50000, 
536.00000,0.806747
536.50000, 
537.00000,0.805939
537.50000, 
538.00000,0.805344
538.50000, 
539.00000,0.804779
539.50000, 
540.00000,0.804123
540.50000, 
541.00000,0.803467
541.50000, 
542.00000,0.802750
542.50000, 
543.00000,0.801941
543.50000, 
544.00000,0.801224
544.50000, 
545.00000,0.800430
545.50000, 
546.00000,0.799561
546.50000, 
547.00000,0.798615
547.50000, 
548.00000,0.797684
548.50000, 
549.00000,0.796631
549.50000, 
550.00000,0.795471
550.50000, 
551.00000,0.794373
551.50000, 
552.00000,0.793030
552.50000, 
553.00000,0.791656
553.50000, 
554.00000,0.790237
554.50000, 
555.00000,0.788757
555.50000, 
556.00000,0.787079
556.50000, 
557.00000,0.785400
557.50000, 
558.00000,0.783585
558.50000, 
559.00000,0.781708
559.50000, 
560.00000,0.779861
560.50000, 
561.00000,0.777786
561.50000, 
562.00000,0.775787
562.50000, 
563.00000,0.773743
563.50000, 
564.00000,0.771561
564.50000, 
565.00000,0.769394
565.50000, 
566.00000,0.767166
566.50000, 
567.00000,0.765060
567.50000, 
568.00000,0.762741
568.50000, 
569.00000,0.760437
569.50000, 
570.00000,0.758102
570.50000, 
571.00000,0.755814
571.50000, 
572.00000,0.753525
572.50000, 
573.00000,0.751297
573.50000, 
574.00000,0.749069
574.50000, 
575.00000,0.746674
575.50000, 
576.00000,0.744339
576.50000, 
577.00000,0.742096
577.50000, 
578.00000,0.739899
578.50000, 
579.00000,0.737900
579.50000, 
580.00000,0.735916
580.50000, 
581.00000,0.733887
581.50000, 
582.00000,0.731979
582.50000, 
583.00000,0.730194
583.50000, 
584.00000,0.728287
584.50000, 
585.00000,0.726624
585.50000, 
586.00000,0.725098
586.50000, 
587.00000,0.723526
587.50000, 
588.00000,0.722061
588.50000, 
589.00000,0.720688
589.50000, 
590.00000,0.719360
590.50000, 
591.00000,0.717941
591.50000, 
592.00000,0.716675
592.50000, 
593.00000,0.715286
593.50000, 
594.00000,0.713898
594.50000, 
595.00000,0.712448
595.50000, 
596.00000,0.711044
596.50000, 
597.00000,0.709549
597.50000, 
598.00000,0.708069
598.50000, 
599.00000,0.706360
599.50000, 
600.00000,0.704575
600.50000, 
601.00000,0.702789
601.50000, 
602.00000,0.700836
602.50000, 
603.00000,0.698593
603.50000, 
604.00000,0.696350
604.50000, 
605.00000,0.693939
605.50000, 
606.00000,0.691345
606.50000, 
607.00000,0.688644
607.50000, 
608.00000,0.685883
608.50000, 
609.00000,0.682907
609.50000, 
610.00000,0.679993
610.50000, 
611.00000,0.677032
611.50000, 
612.00000,0.673782
612.50000, 
613.00000,0.670456
613.50000, 
614.00000,0.667099
614.50000, 
615.00000,0.663620
615.50000, 
616.00000,0.660034
616.50000, 
617.00000,0.656494
617.50000, 
618.00000,0.652969
618.50000, 
619.00000,0.649353
619.50000, 
620.00000,0.645828
620.50000, 
621.00000,0.642044
621.50000, 
622.00000,0.638153
622.50000, 
623.00000,0.634399
623.50000, 
624.00000,0.630554
624.50000, 
625.00000,0.626862
625.50000, 
626.00000,0.623337
626.50000, 
627.00000,0.619873
627.50000, 
628.00000,0.616501
628.50000, 
629.00000,0.613235
629.50000, 
630.00000,0.610260
630.50000, 
631.00000,0.607742
631.50000, 
632.00000,0.606003
632.50000, 
633.00000,0.605560
633.50000, 
634.00000,0.607193
634.50000, 
635.00000,0.604385
635.50000, 
636.00000,0.593903
636.50000, 
637.00000,0.581299
637.50000, 
638.00000,0.567703
638.50000, 
639.00000,0.552490
639.50000, 
640.00000,0.537354
640.50000, 
641.00000,0.522278
641.50000, 
642.00000,0.507904
642.50000, 
643.00000,0.495209
643.50000, 
644.00000,0.484848
644.50000, 
645.00000,0.477020
645.50000, 
646.00000,0.471344
646.50000, 
647.00000,0.467834
647.50000, 
648.00000,0.466034
648.50000, 
649.00000,0.465866
649.50000, 
650.00000,0.466537
650.50000, 
651.00000,0.468094
651.50000, 
652.00000,0.469772
652.50000, 
653.00000,0.471832
653.50000, 
654.00000,0.473938
654.50000, 
655.00000,0.476013
655.50000, 
656.00000,0.477859
656.50000, 
657.00000,0.479584
657.50000, 
658.00000,0.481216
658.50000, 
659.00000,0.482529
659.50000, 
660.00000,0.483948
660.50000, 
661.00000,0.484909
661.50000, 
662.00000,0.485977
662.50000, 
663.00000,0.486755
663.50000, 
664.00000,0.487579
664.50000, 
665.00000,0.488022
665.50000, 
666.00000,0.488770
666.50000, 
667.00000,0.488983
667.50000, 
668.00000,0.489441
668.50000, 
669.00000,0.489563
669.50000, 
670.00000,0.489899
670.50000, 
671.00000,0.489975
671.50000, 
672.00000,0.490143
672.50000, 
673.00000,0.490143
673.50000, 
674.00000,0.490097
674.50000, 
675.00000,0.489914
675.50000, 
676.00000,0.489761
676.50000, 
677.00000,0.489456
677.50000, 
678.00000,0.489288
678.50000, 
679.00000,0.488907
679.50000, 
680.00000,0.488541
680.50000, 
681.00000,0.488144
681.50000, 
682.00000,0.487717
682.50000, 
683.00000,0.487366
683.50000, 
684.00000,0.486984
684.50000, 
685.00000,0.486450
685.50000, 
686.00000,0.486084
686.50000, 
687.00000,0.485474
687.50000, 
688.00000,0.485062
688.50000, 
689.00000,0.484467
689.50000, 
690.00000,0.484009
690.50000, 
691.00000,0.483292
691.50000, 
692.00000,0.482910
692.50000, 
693.00000,0.482239
693.50000, 
694.00000,0.481827
694.50000, 
695.00000,0.481003
695.50000, 
696.00000,0.480576
696.50000, 
697.00000,0.479675
697.50000, 
698.00000,0.479218
698.50000, 
699.00000,0.478378
699.50000, 
700.00000,0.477798
700.50000, 
701.00000,0.476898
701.50000, 
702.00000,0.476425
702.50000, 
703.00000,0.475540
703.50000, 
704.00000,0.475021
704.50000, 
705.00000,0.474136
705.50000, 
706.00000,0.473404
706.50000, 
707.00000,0.472504
707.50000, 
708.00000,0.471634
708.50000, 
709.00000,0.470871
709.50000, 
710.00000,0.469742
710.50000, 
711.00000,0.468979
711.50000, 
712.00000,0.467621
712.50000, 
713.00000,0.466965
713.50000, 
714.00000,0.465652
714.50000, 
715.00000,0.464676
715.50000, 
716.00000,0.463516
716.50000, 
717.00000,0.462326
717.50000, 
718.00000,0.461197
718.50000, 
719.00000,0.459885
719.50000, 
720.00000,0.458954
720.50000, 
721.00000,0.457565
721.50000, 
722.00000,0.456604
722.50000, 
723.00000,0.455185
723.50000, 
724.00000,0.454239
724.50000, 
725.00000,0.452972
725.50000, 
726.00000,0.451935
726.50000, 
727.00000,0.450867
727.50000, 
728.00000,0.449615
728.50000, 
729.00000,0.448746
729.50000, 
730.00000,0.447342
730.50000, 
731.00000,0.446609
731.50000, 
732.00000,0.445419
732.50000, 
733.00000,0.444519
733.50000, 
734.00000,0.443573
734.50000, 
735.00000,0.442337
735.50000, 
736.00000,0.441666
736.50000, 
737.00000,0.440430
737.50000, 
738.00000,0.439621
738.50000, 
739.00000,0.438629
739.50000, 
740.00000,0.437531
740.50000, 
741.00000,0.436829
741.50000, 
742.00000,0.435547
742.50000, 
743.00000,0.434860
743.50000, 
744.00000,0.433670
744.50000, 
745.00000,0.432739
745.50000, 
746.00000,0.431717
746.50000, 
747.00000,0.430527
747.50000, 
748.00000,0.429688
748.50000, 
749.00000,0.428452
749.50000, 
750.00000,0.427826
750.50000, 
751.00000,0.426682
751.50000, 
752.00000,0.425644
752.50000, 
753.00000,0.425018
753.50000, 
754.00000,0.423828
754.50000, 
755.00000,0.423218
755.50000, 
756.00000,0.422180
756.50000, 
757.00000,0.421234
757.50000, 
758.00000,0.420654
758.50000, 
759.00000,0.419388
759.50000, 
760.00000,0.418884
760.50000, 
761.00000,0.417847
761.50000, 
762.00000,0.416855
762.50000, 
763.00000,0.416336
763.50000, 
764.00000,0.415100
764.50000, 
765.00000,0.414459
765.50000, 
766.00000,0.413544
766.50000, 
767.00000,0.412552
767.50000, 
768.00000,0.411987
768.50000, 
769.00000,0.410904
769.50000, 
770.00000,0.410217
770.50000, 
771.00000,0.409439
771.50000, 
772.00000,0.408371
772.50000, 
773.00000,0.407837
773.50000, 
774.00000,0.406754
774.50000, 
775.00000,0.406021
775.50000, 
776.00000,0.405319
776.50000, 
777.00000,0.404236
777.50000, 
778.00000,0.403854
778.50000, 
779.00000,0.402863
779.50000, 
780.00000,0.402069
780.50000, 
781.00000,0.401505
781.50000, 
782.00000,0.400589
782.50000, 
783.00000,0.399811
783.50000, 
784.00000,0.399216
784.50000, 
785.00000,0.398071
785.50000, 
786.00000,0.397659
786.50000, 
787.00000,0.396713
787.50000, 
788.00000,0.395889
788.50000, 
789.00000,0.395309
789.50000, 
790.00000,0.394318
790.50000, 
791.00000,0.393600
791.50000, 
792.00000,0.392929
792.50000, 
793.00000,0.391846
793.50000, 
794.00000,0.391235
794.50000, 
795.00000,0.390396
795.50000, 
796.00000,0.389420
796.50000, 
797.00000,0.388977
797.50000, 
798.00000,0.387802
798.50000, 
799.00000,0.387115
799.50000, 
800.00000,0.386414
800.50000, 
801.00000,0.385406
801.50000, 
802.00000,0.384628
802.50000, 
803.00000,0.383957
803.50000, 
804.00000,0.382721
804.50000, 
805.00000,0.382111
805.50000, 
806.00000,0.381241
806.50000, 
807.00000,0.380173
807.50000, 
808.00000,0.379517
808.50000, 
809.00000,0.378494
809.50000, 
810.00000,0.377197
810.50000, 
811.00000,0.376465
811.50000, 
812.00000,0.375305
812.50000, 
813.00000,0.374191
813.50000, 
814.00000,0.373383
814.50000, 
815.00000,0.372192
815.50000, 
816.00000,0.371002
816.50000, 
817.00000,0.370010
817.50000, 
818.00000,0.368530
818.50000, 
819.00000,0.367447
819.50000, 
820.00000,0.366470
820.50000, 
821.00000,0.364883
821.50000, 
822.00000,0.363846
822.50000, 
823.00000,0.362656
823.50000, 
824.00000,0.361313
824.50000, 
825.00000,0.360016
825.50000, 
826.00000,0.359039
826.50000, 
827.00000,0.357315
827.50000, 
828.00000,0.356125
828.50000, 
829.00000,0.354813
829.50000, 
830.00000,0.353348
830.50000, 
831.00000,0.351822
831.50000, 
832.00000,0.350540
832.50000, 
833.00000,0.348862
833.50000, 
834.00000,0.347351
834.50000, 
835.00000,0.346024
835.50000, 
836.00000,0.344177
836.50000, 
837.00000,0.342682
837.50000, 
838.00000,0.341156
838.50000, 
839.00000,0.339462
839.50000, 
840.00000,0.337769
840.50000, 
841.00000,0.336456
841.50000, 
842.00000,0.334564
842.50000, 
843.00000,0.333023
843.50000, 
844.00000,0.331436
844.50000, 
845.00000,0.329666
845.50000, 
846.00000,0.327927
846.50000, 
847.00000,0.326477
847.50000, 
848.00000,0.324844
848.50000, 
849.00000,0.322906
849.50000, 
850.00000,0.321533
850.50000, 
851.00000,0.319672
851.50000, 
852.00000,0.318115
852.50000, 
853.00000,0.316498
853.50000, 
854.00000,0.314758
854.50000, 
855.00000,0.312881
855.50000, 
856.00000,0.311234
856.50000, 
857.00000,0.309677
857.50000, 
858.00000,0.307495
858.50000, 
859.00000,0.306015
859.50000, 
860.00000,0.304276
860.50000, 
861.00000,0.302643
861.50000, 
862.00000,0.300812
862.50000, 
863.00000,0.299225
863.50000, 
864.00000,0.297501
864.50000, 
865.00000,0.295761
865.50000, 
866.00000,0.294296
866.50000, 
867.00000,0.292526
867.50000, 
868.00000,0.291153
868.50000, 
869.00000,0.289566
869.50000, 
870.00000,0.288040
870.50000, 
871.00000,0.286606
871.50000, 
872.00000,0.285034
872.50000, 
873.00000,0.283676
873.50000, 
874.00000,0.281998
874.50000, 
875.00000,0.280746
875.50000, 
876.00000,0.279282
876.50000, 
877.00000,0.277786
877.50000, 
878.00000,0.276428
878.50000, 
879.00000,0.274948
879.50000, 
880.00000,0.273666
880.50000, 
881.00000,0.272003
881.50000, 
882.00000,0.270752
882.50000, 
883.00000,0.269424
883.50000, 
884.00000,0.268066
884.50000, 
885.00000,0.266876
885.50000, 
886.00000,0.265533
886.50000, 
887.00000,0.264465
887.50000, 
888.00000,0.263123
888.50000, 
889.00000,0.261978
889.50000, 
890.00000,0.261017
890.50000, 
891.00000,0.259766
891.50000, 
892.00000,0.258896
892.50000, 
893.00000,0.257858
893.50000, 
894.00000,0.256729
894.50000, 
895.00000,0.255997
895.50000, 
896.00000,0.254990
896.50000, 
897.00000,0.254074
897.50000, 
898.00000,0.253189
898.50000, 
899.00000,0.252380
899.50000, 
900.00000,0.251740
900.50000, 
901.00000, 
901.50000, 
902.00000, 
902.50000, 
903.00000, 
903.50000, 
904.00000, 
904.50000, 
905.00000, 
905.50000, 
906.00000, 
906.50000, 
907.00000, 
907.50000, 
908.00000, 
908.50000, 
909.00000, 
909.50000, 
910.00000, 
910.50000, 
911.00000, 
911.50000, 
912.00000, 
912.50000, 
913.00000, 
913.50000, 
914.00000, 
914.50000, 
915.00000, 
915.50000, 
916.00000, 
916.50000, 
917.00000, 
917.50000, 
918.00000, 
918.50000, 
919.00000, 
919.50000, 
920.00000, 
920.50000, 
921.00000, 
921.50000, 
922.00000, 
922.50000, 
923.00000, 
923.50000, 
924.00000, 
924.50000, 
925.00000, 
925.50000, 
926.00000, 
926.50000, 
927.00000, 
927.50000, 
928.00000, 
928.50000, 
929.00000, 
929.50000, 
930.00000, 
930.50000, 
931.00000, 
931.50000, 
932.00000, 
932.50000, 
933.00000, 
933.50000, 
934.00000, 
934.50000, 
935.00000, 
935.50000, 
936.00000, 
936.50000, 
937.00000, 
937.50000, 
938.00000, 
938.50000, 
939.00000, 
939.50000, 
940.00000, 
940.50000, 
941.00000, 
941.50000, 
942.00000, 
942.50000, 
943.00000, 
943.50000, 
944.00000, 
944.50000, 
945.00000, 
945.50000, 
946.00000, 
946.50000, 
947.00000, 
947.50000, 
948.00000, 
948.50000, 
949.00000, 
949.50000, 
950.00000, 
950.50000, 
951.00000, 
951.50000, 
952.00000, 
952.50000, 
953.00000, 
953.50000, 
954.00000, 
954.50000, 
955.00000, 
955.50000, 
956.00000, 
956.50000, 
957.00000, 
957.50000, 
958.00000, 
958.50000, 
959.00000, 
959.50000, 
960.00000, 
960.50000, 
961.00000, 
961.50000, 
962.00000, 
962.50000, 
963.00000, 
963.50000, 
964.00000, 
964.50000, 
965.00000, 
965.50000, 
966.00000, 
966.50000, 
967.00000, 
967.50000, 
968.00000, 
968.50000, 
969.00000, 
969.50000, 
970.00000, 
970.50000, 
971.00000, 
971.50000, 
972.00000, 
972.50000, 
973.00000, 
973.50000, 
974.00000, 
974.50000, 
975.00000, 
975.50000, 
976.00000, 
976.50000, 
977.00000, 
977.50000, 
978.00000, 
978.50000, 
979.00000, 
979.50000, 
980.00000, 
980.50000, 
981.00000, 
981.50000, 
982.00000, 
982.50000, 
983.00000, 
983.50000, 
984.00000, 
984.50000, 
985.00000, 
985.50000, 
986.00000, 
986.50000, 
987.00000, 
987.50000, 
988.00000, 
988.50000, 
989.00000, 
989.50000, 
990.00000, 
990.50000, 
991.00000, 
991.50000, 
992.00000, 
992.50000, 
993.00000, 
993.50000, 
994.00000, 
994.50000, 
995.00000, 
995.50000, 
996.00000, 
996.50000, 
997.00000, 
997.50000, 
998.00000, 
998.50000, 
999.00000, 
999.50000, 
1000.00000, 
1000.50000, 
1001.00000, 
1001.50000, 
1002.00000, 
1002.50000, 
1003.00000, 
1003.50000, 
1004.00000, 
1004.50000, 
1005.00000, 
1005.50000, 
1006.00000, 
1006.50000, 
1007.00000, 
1007.50000, 
1008.00000, 
1008.50000, 
1009.00000, 
1009.50000, 
1010.00000, 
1010.50000, 
1011.00000, 
1011.50000, 
1012.00000, 
1012.50000, 
1013.00000, 
1013.50000, 
1014.00000, 
1014.50000, 
1015.00000, 
1015.50000, 
1016.00000, 
1016.50000, 
1017.00000, 
1017.50000, 
1018.00000, 
1018.50000, 
1019.00000, 
1019.50000, 
1020.00000, 
1020.50000, 
1021.00000, 
1021.50000, 
1022.00000, 
1022.50000, 
1023.00000, 
1023.50000, 
1024.00000, 
1024.50000, 
1025.00000, 
1025.50000, 
1026.00000, 
1026.50000, 
1027.00000, 
1027.50000, 
1028.00000, 
1028.50000, 
1029.00000, 
1029.50000, 
1030.00000, 
1030.50000, 
1031.00000, 
1031.50000, 
1032.00000, 
1032.50000, 
1033.00000, 
1033.50000, 
1034.00000, 
1034.50000, 
1035.00000, 
1035.50000, 
1036.00000, 
1036.50000, 
1037.00000, 
1037.50000, 
1038.00000, 
1038.50000, 
1039.00000, 
1039.50000, 
1040.00000, 
1040.50000, 
1041.00000, 
1041.50000, 
1042.00000, 
1042.50000, 
1043.00000, 
1043.50000, 
1044.00000, 
1044.50000, 
1045.00000, 
1045.50000, 
1046.00000, 
1046.50000, 
1047.00000, 
1047.50000, 
1048.00000, 
1048.50000, 
1049.00000, 
1049.50000, 
1050.00000, 
1050.50000, 
1051.00000, 
1051.50000, 
1052.00000, 
1052.50000, 
1053.00000, 
1053.50000, 
1054.00000, 
1054.50000, 
1055.00000, 
1055.50000, 
1056.00000, 
1056.50000, 
1057.00000, 
1057.50000, 
1058.00000, 
1058.50000, 
1059.00000, 
1059.50000, 
1060.00000, 
1060.50000, 
1061.00000, 
1061.50000, 
1062.00000, 
1062.50000, 
1063.00000, 
1063.50000, 
1064.00000, 
1064.50000, 
1065.00000, 
1065.50000, 
1066.00000, 
1066.50000, 
1067.00000, 
1067.50000, 
1068.00000, 
1068.50000, 
1069.00000, 
1069.50000, 
1070.00000, 
1070.50000, 
1071.00000, 
1071.50000, 
1072.00000, 
1072.50000, 
1073.00000, 
1073.50000, 
1074.00000, 
1074.50000, 
1075.00000, 
1075.50000, 
1076.00000, 
1076.50000, 
1077.00000, 
1077.50000, 
1078.00000, 
1078.50000, 
1079.00000, 
1079.50000, 
1080.00000, 
1080.50000, 
1081.00000, 
1081.50000, 
1082.00000, 
1082.50000, 
1083.00000, 
1083.50000, 
1084.00000, 
1084.50000, 
1085.00000, 
1085.50000, 
1086.00000, 
1086.50000, 
1087.00000, 
1087.50000, 
1088.00000, 
1088.50000, 
1089.00000, 
1089.50000, 
1090.00000, 
1090.50000, 
1091.00000, 
1091.50000, 
1092.00000, 
1092.50000, 
1093.00000, 
1093.50000, 
1094.00000, 
1094.50000, 
1095.00000, 
1095.50000, 
1096.00000, 
1096.50000, 
1097.00000, 
1097.50000, 
1098.00000, 
1098.50000, 
1099.00000, 
1099.50000, 
1100.00000, 
