"30%H - RawData"
"Wavelength nm.","Abs."
300.00000,4.000000
300.50000, 
301.00000,4.000000
301.50000, 
302.00000,3.955612
302.50000, 
303.00000,3.776276
303.50000, 
304.00000,3.987869
304.50000, 
305.00000,3.966019
305.50000, 
306.00000,3.996582
306.50000, 
307.00000,3.964203
307.50000, 
308.00000,3.996613
308.50000, 
309.00000,3.976944
309.50000, 
310.00000,3.858154
310.50000, 
311.00000,3.943161
311.50000, 
312.00000,3.973511
312.50000, 
313.00000,3.956360
313.50000, 
314.00000,3.913300
314.50000, 
315.00000,3.907837
315.50000, 
316.00000,3.898453
316.50000, 
317.00000,3.873734
317.50000, 
318.00000,3.923416
318.50000, 
319.00000,3.931686
319.50000, 
320.00000,3.952408
320.50000, 
321.00000,3.981445
321.50000, 
322.00000,3.940094
322.50000, 
323.00000,3.909668
323.50000, 
324.00000,3.971069
324.50000, 
325.00000,3.969482
325.50000, 
326.00000,3.982803
326.50000, 
327.00000,3.926254
327.50000, 
328.00000,3.923279
328.50000, 
329.00000,3.974396
329.50000, 
330.00000,3.922028
330.50000, 
331.00000,4.000000
331.50000, 
332.00000,3.971664
332.50000, 
333.00000,3.762177
333.50000, 
334.00000,3.862869
334.50000, 
335.00000,3.891571
335.50000, 
336.00000,3.818924
336.50000, 
337.00000,3.901108
337.50000, 
338.00000,3.968033
338.50000, 
339.00000,3.963226
339.50000, 
340.00000,3.646469
340.50000, 
341.00000,3.949615
341.50000, 
342.00000,3.916367
342.50000, 
343.00000,3.889862
343.50000, 
344.00000,3.981567
344.50000, 
345.00000,3.776886
345.50000, 
346.00000,3.941559
346.50000, 
347.00000,3.943192
347.50000, 
348.00000,3.993607
348.50000, 
349.00000,3.961716
349.50000, 
350.00000,3.870117
350.50000, 
351.00000,3.773987
351.50000, 
352.00000,3.826996
352.50000, 
353.00000,3.808502
353.50000, 
354.00000,3.920868
354.50000, 
355.00000,3.905945
355.50000, 
356.00000,3.832611
356.50000, 
357.00000,3.925781
357.50000, 
358.00000,3.904816
358.50000, 
359.00000,3.970932
359.50000, 
360.00000,3.906265
360.50000, 
361.00000,3.969696
361.50000, 
362.00000,3.945160
362.50000, 
363.00000,3.984497
363.50000, 
364.00000,3.937729
364.50000, 
365.00000,3.832047
365.50000, 
366.00000,3.883408
366.50000, 
367.00000,3.759735
367.50000, 
368.00000,3.852158
368.50000, 
369.00000,3.856522
369.50000, 
370.00000,3.808426
370.50000, 
371.00000,3.737213
371.50000, 
372.00000,3.807846
372.50000, 
373.00000,3.858459
373.50000, 
374.00000,3.843277
374.50000, 
375.00000,3.566193
375.50000, 
376.00000,3.832199
376.50000, 
377.00000,3.906448
377.50000, 
378.00000,3.978577
378.50000, 
379.00000,3.912659
379.50000, 
380.00000,3.822128
380.50000, 
381.00000,3.625641
381.50000, 
382.00000,3.520370
382.50000, 
383.00000,3.278839
383.50000, 
384.00000,2.965988
384.50000, 
385.00000,2.749313
385.50000, 
386.00000,2.542679
386.50000, 
387.00000,2.363129
387.50000, 
388.00000,2.175247
388.50000, 
389.00000,2.026291
389.50000, 
390.00000,1.888245
390.50000, 
391.00000,1.767639
391.50000, 
392.00000,1.657394
392.50000, 
393.00000,1.561096
393.50000, 
394.00000,1.465012
394.50000, 
395.00000,1.385498
395.50000, 
396.00000,1.311447
396.50000, 
397.00000,1.246414
397.50000, 
398.00000,1.191193
398.50000, 
399.00000,1.142776
399.50000, 
400.00000,1.101120
400.50000, 
401.00000,1.064758
401.50000, 
402.00000,1.033783
402.50000, 
403.00000,1.008545
403.50000, 
404.00000,0.986969
404.50000, 
405.00000,0.969162
405.50000, 
406.00000,0.954605
406.50000, 
407.00000,0.941910
407.50000, 
408.00000,0.931686
408.50000, 
409.00000,0.923141
409.50000, 
410.00000,0.915863
410.50000, 
411.00000,0.909943
411.50000, 
412.00000,0.904617
412.50000, 
413.00000,0.900208
413.50000, 
414.00000,0.896194
414.50000, 
415.00000,0.892899
415.50000, 
416.00000,0.889496
416.50000, 
417.00000,0.886536
417.50000, 
418.00000,0.884033
418.50000, 
419.00000,0.881500
419.50000, 
420.00000,0.879440
420.50000, 
421.00000,0.877686
421.50000, 
422.00000,0.875687
422.50000, 
423.00000,0.874176
423.50000, 
424.00000,0.872528
424.50000, 
425.00000,0.870850
425.50000, 
426.00000,0.869492
426.50000, 
427.00000,0.868347
427.50000, 
428.00000,0.867294
428.50000, 
429.00000,0.866272
429.50000, 
430.00000,0.865570
430.50000, 
431.00000,0.864746
431.50000, 
432.00000,0.863968
432.50000, 
433.00000,0.863129
433.50000, 
434.00000,0.862350
434.50000, 
435.00000,0.861847
435.50000, 
436.00000,0.861176
436.50000, 
437.00000,0.860245
437.50000, 
438.00000,0.859344
438.50000, 
439.00000,0.858566
439.50000, 
440.00000,0.857635
440.50000, 
441.00000,0.856781
441.50000, 
442.00000,0.855972
442.50000, 
443.00000,0.855316
443.50000, 
444.00000,0.854416
444.50000, 
445.00000,0.853668
445.50000, 
446.00000,0.852997
446.50000, 
447.00000,0.852295
447.50000, 
448.00000,0.851532
448.50000, 
449.00000,0.850967
449.50000, 
450.00000,0.850357
450.50000, 
451.00000,0.849838
451.50000, 
452.00000,0.849136
452.50000, 
453.00000,0.848679
453.50000, 
454.00000,0.848221
454.50000, 
455.00000,0.847733
455.50000, 
456.00000,0.847183
456.50000, 
457.00000,0.846741
457.50000, 
458.00000,0.846390
458.50000, 
459.00000,0.846161
459.50000, 
460.00000,0.845825
460.50000, 
461.00000,0.845520
461.50000, 
462.00000,0.845139
462.50000, 
463.00000,0.844971
463.50000, 
464.00000,0.844757
464.50000, 
465.00000,0.844788
465.50000, 
466.00000,0.844711
466.50000, 
467.00000,0.844727
467.50000, 
468.00000,0.845047
468.50000, 
469.00000,0.845490
469.50000, 
470.00000,0.846039
470.50000, 
471.00000,0.846939
471.50000, 
472.00000,0.848999
472.50000, 
473.00000,0.852386
473.50000, 
474.00000,0.853806
474.50000, 
475.00000,0.852066
475.50000, 
476.00000,0.849533
476.50000, 
477.00000,0.846542
477.50000, 
478.00000,0.842758
478.50000, 
479.00000,0.838425
479.50000, 
480.00000,0.833191
480.50000, 
481.00000,0.827103
481.50000, 
482.00000,0.820328
482.50000, 
483.00000,0.812790
483.50000, 
484.00000,0.804306
484.50000, 
485.00000,0.795441
485.50000, 
486.00000,0.786316
486.50000, 
487.00000,0.776917
487.50000, 
488.00000,0.768112
488.50000, 
489.00000,0.760101
489.50000, 
490.00000,0.753235
490.50000, 
491.00000,0.747513
491.50000, 
492.00000,0.743134
492.50000, 
493.00000,0.740005
493.50000, 
494.00000,0.738022
494.50000, 
495.00000,0.737106
495.50000, 
496.00000,0.737122
496.50000, 
497.00000,0.737839
497.50000, 
498.00000,0.738998
498.50000, 
499.00000,0.740646
499.50000, 
500.00000,0.742340
500.50000, 
501.00000,0.744308
501.50000, 
502.00000,0.746460
502.50000, 
503.00000,0.748535
503.50000, 
504.00000,0.750641
504.50000, 
505.00000,0.752670
505.50000, 
506.00000,0.754593
506.50000, 
507.00000,0.756378
507.50000, 
508.00000,0.758102
508.50000, 
509.00000,0.759506
509.50000, 
510.00000,0.760910
510.50000, 
511.00000,0.761978
511.50000, 
512.00000,0.763046
512.50000, 
513.00000,0.764099
513.50000, 
514.00000,0.764877
514.50000, 
515.00000,0.765671
515.50000, 
516.00000,0.766357
516.50000, 
517.00000,0.766953
517.50000, 
518.00000,0.767395
518.50000, 
519.00000,0.767685
519.50000, 
520.00000,0.767914
520.50000, 
521.00000,0.768204
521.50000, 
522.00000,0.768356
522.50000, 
523.00000,0.768433
523.50000, 
524.00000,0.768509
524.50000, 
525.00000,0.768555
525.50000, 
526.00000,0.768555
526.50000, 
527.00000,0.768311
527.50000, 
528.00000,0.768265
528.50000, 
529.00000,0.768051
529.50000, 
530.00000,0.767899
530.50000, 
531.00000,0.767715
531.50000, 
532.00000,0.767563
532.50000, 
533.00000,0.767258
533.50000, 
534.00000,0.766891
534.50000, 
535.00000,0.766724
535.50000, 
536.00000,0.766357
536.50000, 
537.00000,0.765625
537.50000, 
538.00000,0.765259
538.50000, 
539.00000,0.764984
539.50000, 
540.00000,0.764679
540.50000, 
541.00000,0.764313
541.50000, 
542.00000,0.763916
542.50000, 
543.00000,0.763382
543.50000, 
544.00000,0.762955
544.50000, 
545.00000,0.762527
545.50000, 
546.00000,0.761917
546.50000, 
547.00000,0.761307
547.50000, 
548.00000,0.760696
548.50000, 
549.00000,0.759933
549.50000, 
550.00000,0.759109
550.50000, 
551.00000,0.758255
551.50000, 
552.00000,0.757385
552.50000, 
553.00000,0.756500
553.50000, 
554.00000,0.755417
554.50000, 
555.00000,0.754318
555.50000, 
556.00000,0.753067
556.50000, 
557.00000,0.751755
557.50000, 
558.00000,0.750320
558.50000, 
559.00000,0.748901
559.50000, 
560.00000,0.747559
560.50000, 
561.00000,0.746002
561.50000, 
562.00000,0.744431
562.50000, 
563.00000,0.742844
563.50000, 
564.00000,0.741180
564.50000, 
565.00000,0.739456
565.50000, 
566.00000,0.737701
566.50000, 
567.00000,0.735962
567.50000, 
568.00000,0.734100
568.50000, 
569.00000,0.732208
569.50000, 
570.00000,0.730392
570.50000, 
571.00000,0.728561
571.50000, 
572.00000,0.726700
572.50000, 
573.00000,0.724869
573.50000, 
574.00000,0.723007
574.50000, 
575.00000,0.721115
575.50000, 
576.00000,0.719238
576.50000, 
577.00000,0.717392
577.50000, 
578.00000,0.715607
578.50000, 
579.00000,0.713928
579.50000, 
580.00000,0.712173
580.50000, 
581.00000,0.710480
581.50000, 
582.00000,0.708908
582.50000, 
583.00000,0.707413
583.50000, 
584.00000,0.705872
584.50000, 
585.00000,0.704529
585.50000, 
586.00000,0.703232
586.50000, 
587.00000,0.701950
587.50000, 
588.00000,0.700684
588.50000, 
589.00000,0.699509
589.50000, 
590.00000,0.698395
590.50000, 
591.00000,0.697235
591.50000, 
592.00000,0.696167
592.50000, 
593.00000,0.695053
593.50000, 
594.00000,0.693832
594.50000, 
595.00000,0.692612
595.50000, 
596.00000,0.691360
596.50000, 
597.00000,0.690063
597.50000, 
598.00000,0.688782
598.50000, 
599.00000,0.687439
599.50000, 
600.00000,0.685913
600.50000, 
601.00000,0.684250
601.50000, 
602.00000,0.682510
602.50000, 
603.00000,0.680679
603.50000, 
604.00000,0.678665
604.50000, 
605.00000,0.676575
605.50000, 
606.00000,0.674301
606.50000, 
607.00000,0.671997
607.50000, 
608.00000,0.669632
608.50000, 
609.00000,0.667130
609.50000, 
610.00000,0.664536
610.50000, 
611.00000,0.662018
611.50000, 
612.00000,0.659180
612.50000, 
613.00000,0.656219
613.50000, 
614.00000,0.653305
614.50000, 
615.00000,0.650223
615.50000, 
616.00000,0.647156
616.50000, 
617.00000,0.644058
617.50000, 
618.00000,0.640869
618.50000, 
619.00000,0.637726
619.50000, 
620.00000,0.634552
620.50000, 
621.00000,0.631119
621.50000, 
622.00000,0.627731
622.50000, 
623.00000,0.624451
623.50000, 
624.00000,0.621048
624.50000, 
625.00000,0.617767
625.50000, 
626.00000,0.614548
626.50000, 
627.00000,0.611465
627.50000, 
628.00000,0.608551
628.50000, 
629.00000,0.605606
629.50000, 
630.00000,0.603043
630.50000, 
631.00000,0.600891
631.50000, 
632.00000,0.599411
632.50000, 
633.00000,0.599289
633.50000, 
634.00000,0.601212
634.50000, 
635.00000,0.598587
635.50000, 
636.00000,0.588272
636.50000, 
637.00000,0.575821
637.50000, 
638.00000,0.562500
638.50000, 
639.00000,0.547546
639.50000, 
640.00000,0.532532
640.50000, 
641.00000,0.517654
641.50000, 
642.00000,0.503464
642.50000, 
643.00000,0.491028
643.50000, 
644.00000,0.480789
644.50000, 
645.00000,0.473160
645.50000, 
646.00000,0.467667
646.50000, 
647.00000,0.464371
647.50000, 
648.00000,0.462692
648.50000, 
649.00000,0.462677
649.50000, 
650.00000,0.463547
650.50000, 
651.00000,0.465179
651.50000, 
652.00000,0.467010
652.50000, 
653.00000,0.469177
653.50000, 
654.00000,0.471375
654.50000, 
655.00000,0.473480
655.50000, 
656.00000,0.475510
656.50000, 
657.00000,0.477280
657.50000, 
658.00000,0.478989
658.50000, 
659.00000,0.480408
659.50000, 
660.00000,0.481903
660.50000, 
661.00000,0.483047
661.50000, 
662.00000,0.484177
662.50000, 
663.00000,0.485001
663.50000, 
664.00000,0.485886
664.50000, 
665.00000,0.486389
665.50000, 
666.00000,0.487106
666.50000, 
667.00000,0.487442
667.50000, 
668.00000,0.487946
668.50000, 
669.00000,0.488159
669.50000, 
670.00000,0.488480
670.50000, 
671.00000,0.488602
671.50000, 
672.00000,0.488785
672.50000, 
673.00000,0.488815
673.50000, 
674.00000,0.488815
674.50000, 
675.00000,0.488663
675.50000, 
676.00000,0.488480
676.50000, 
677.00000,0.488342
677.50000, 
678.00000,0.488190
678.50000, 
679.00000,0.487808
679.50000, 
680.00000,0.487473
680.50000, 
681.00000,0.487137
681.50000, 
682.00000,0.486725
682.50000, 
683.00000,0.486420
683.50000, 
684.00000,0.486038
684.50000, 
685.00000,0.485550
685.50000, 
686.00000,0.485153
686.50000, 
687.00000,0.484604
687.50000, 
688.00000,0.484192
688.50000, 
689.00000,0.483643
689.50000, 
690.00000,0.483185
690.50000, 
691.00000,0.482407
691.50000, 
692.00000,0.482040
692.50000, 
693.00000,0.481354
693.50000, 
694.00000,0.480972
694.50000, 
695.00000,0.480148
695.50000, 
696.00000,0.479736
696.50000, 
697.00000,0.478958
697.50000, 
698.00000,0.478561
698.50000, 
699.00000,0.477646
699.50000, 
700.00000,0.477112
700.50000, 
701.00000,0.476105
701.50000, 
702.00000,0.475708
702.50000, 
703.00000,0.474838
703.50000, 
704.00000,0.474274
704.50000, 
705.00000,0.473373
705.50000, 
706.00000,0.472702
706.50000, 
707.00000,0.471817
707.50000, 
708.00000,0.470978
708.50000, 
709.00000,0.470230
709.50000, 
710.00000,0.469223
710.50000, 
711.00000,0.468521
711.50000, 
712.00000,0.467209
712.50000, 
713.00000,0.466568
713.50000, 
714.00000,0.465302
714.50000, 
715.00000,0.464371
715.50000, 
716.00000,0.463196
716.50000, 
717.00000,0.462051
717.50000, 
718.00000,0.460876
718.50000, 
719.00000,0.459610
719.50000, 
720.00000,0.458694
720.50000, 
721.00000,0.457336
721.50000, 
722.00000,0.456528
722.50000, 
723.00000,0.455170
723.50000, 
724.00000,0.454269
724.50000, 
725.00000,0.452957
725.50000, 
726.00000,0.451965
726.50000, 
727.00000,0.450912
727.50000, 
728.00000,0.449707
728.50000, 
729.00000,0.448853
729.50000, 
730.00000,0.447479
730.50000, 
731.00000,0.446793
731.50000, 
732.00000,0.445587
732.50000, 
733.00000,0.444778
733.50000, 
734.00000,0.443802
734.50000, 
735.00000,0.442612
735.50000, 
736.00000,0.441986
736.50000, 
737.00000,0.440720
737.50000, 
738.00000,0.439972
738.50000, 
739.00000,0.438980
739.50000, 
740.00000,0.437912
740.50000, 
741.00000,0.437225
741.50000, 
742.00000,0.435898
742.50000, 
743.00000,0.435303
743.50000, 
744.00000,0.434113
744.50000, 
745.00000,0.433304
745.50000, 
746.00000,0.432251
746.50000, 
747.00000,0.431061
747.50000, 
748.00000,0.430206
748.50000, 
749.00000,0.429001
749.50000, 
750.00000,0.428375
750.50000, 
751.00000,0.427261
751.50000, 
752.00000,0.426270
752.50000, 
753.00000,0.425598
753.50000, 
754.00000,0.424423
754.50000, 
755.00000,0.423920
755.50000, 
756.00000,0.422867
756.50000, 
757.00000,0.421875
757.50000, 
758.00000,0.421265
758.50000, 
759.00000,0.420044
759.50000, 
760.00000,0.419662
760.50000, 
761.00000,0.418686
761.50000, 
762.00000,0.417694
762.50000, 
763.00000,0.417206
763.50000, 
764.00000,0.416061
764.50000, 
765.00000,0.415405
765.50000, 
766.00000,0.414444
766.50000, 
767.00000,0.413483
767.50000, 
768.00000,0.412964
768.50000, 
769.00000,0.411896
769.50000, 
770.00000,0.411209
770.50000, 
771.00000,0.410416
771.50000, 
772.00000,0.409317
772.50000, 
773.00000,0.408752
773.50000, 
774.00000,0.407745
774.50000, 
775.00000,0.407074
775.50000, 
776.00000,0.406387
776.50000, 
777.00000,0.405365
777.50000, 
778.00000,0.404984
778.50000, 
779.00000,0.403915
779.50000, 
780.00000,0.403152
780.50000, 
781.00000,0.402618
781.50000, 
782.00000,0.401718
782.50000, 
783.00000,0.401016
783.50000, 
784.00000,0.400391
784.50000, 
785.00000,0.399246
785.50000, 
786.00000,0.398911
786.50000, 
787.00000,0.397934
787.50000, 
788.00000,0.397064
788.50000, 
789.00000,0.396515
789.50000, 
790.00000,0.395523
790.50000, 
791.00000,0.394897
791.50000, 
792.00000,0.394165
792.50000, 
793.00000,0.393127
793.50000, 
794.00000,0.392624
794.50000, 
795.00000,0.391785
795.50000, 
796.00000,0.390839
796.50000, 
797.00000,0.390366
797.50000, 
798.00000,0.389191
798.50000, 
799.00000,0.388535
799.50000, 
800.00000,0.387802
800.50000, 
801.00000,0.386749
801.50000, 
802.00000,0.386017
802.50000, 
803.00000,0.385422
803.50000, 
804.00000,0.384171
804.50000, 
805.00000,0.383591
805.50000, 
806.00000,0.382706
806.50000, 
807.00000,0.381638
807.50000, 
808.00000,0.381012
808.50000, 
809.00000,0.380035
809.50000, 
810.00000,0.378754
810.50000, 
811.00000,0.378006
811.50000, 
812.00000,0.376816
812.50000, 
813.00000,0.375732
813.50000, 
814.00000,0.374924
814.50000, 
815.00000,0.373749
815.50000, 
816.00000,0.372513
816.50000, 
817.00000,0.371628
817.50000, 
818.00000,0.370163
818.50000, 
819.00000,0.369080
819.50000, 
820.00000,0.368073
820.50000, 
821.00000,0.366501
821.50000, 
822.00000,0.365509
822.50000, 
823.00000,0.364380
823.50000, 
824.00000,0.362930
824.50000, 
825.00000,0.361694
825.50000, 
826.00000,0.360703
826.50000, 
827.00000,0.358932
827.50000, 
828.00000,0.357819
828.50000, 
829.00000,0.356552
829.50000, 
830.00000,0.355026
830.50000, 
831.00000,0.353531
831.50000, 
832.00000,0.352280
832.50000, 
833.00000,0.350586
833.50000, 
834.00000,0.349106
834.50000, 
835.00000,0.347778
835.50000, 
836.00000,0.345978
836.50000, 
837.00000,0.344482
837.50000, 
838.00000,0.342941
838.50000, 
839.00000,0.341217
839.50000, 
840.00000,0.339584
840.50000, 
841.00000,0.338303
841.50000, 
842.00000,0.336349
842.50000, 
843.00000,0.334808
843.50000, 
844.00000,0.333206
844.50000, 
845.00000,0.331467
845.50000, 
846.00000,0.329742
846.50000, 
847.00000,0.328308
847.50000, 
848.00000,0.326691
848.50000, 
849.00000,0.324768
849.50000, 
850.00000,0.323395
850.50000, 
851.00000,0.321594
851.50000, 
852.00000,0.320007
852.50000, 
853.00000,0.318375
853.50000, 
854.00000,0.316650
854.50000, 
855.00000,0.314758
855.50000, 
856.00000,0.313095
856.50000, 
857.00000,0.311554
857.50000, 
858.00000,0.309418
858.50000, 
859.00000,0.307953
859.50000, 
860.00000,0.306198
860.50000, 
861.00000,0.304565
861.50000, 
862.00000,0.302750
862.50000, 
863.00000,0.301147
863.50000, 
864.00000,0.299393
864.50000, 
865.00000,0.297668
865.50000, 
866.00000,0.296173
866.50000, 
867.00000,0.294464
867.50000, 
868.00000,0.293121
868.50000, 
869.00000,0.291565
869.50000, 
870.00000,0.290024
870.50000, 
871.00000,0.288544
871.50000, 
872.00000,0.286957
872.50000, 
873.00000,0.285583
873.50000, 
874.00000,0.283905
874.50000, 
875.00000,0.282669
875.50000, 
876.00000,0.281204
876.50000, 
877.00000,0.279755
877.50000, 
878.00000,0.278427
878.50000, 
879.00000,0.276917
879.50000, 
880.00000,0.275604
880.50000, 
881.00000,0.273956
881.50000, 
882.00000,0.272736
882.50000, 
883.00000,0.271393
883.50000, 
884.00000,0.270065
884.50000, 
885.00000,0.268890
885.50000, 
886.00000,0.267548
886.50000, 
887.00000,0.266525
887.50000, 
888.00000,0.265182
888.50000, 
889.00000,0.264038
889.50000, 
890.00000,0.263077
890.50000, 
891.00000,0.261780
891.50000, 
892.00000,0.260971
892.50000, 
893.00000,0.259857
893.50000, 
894.00000,0.258789
894.50000, 
895.00000,0.258072
895.50000, 
896.00000,0.257095
896.50000, 
897.00000,0.256165
897.50000, 
898.00000,0.255249
898.50000, 
899.00000,0.254486
899.50000, 
900.00000,0.253922
900.50000, 
901.00000, 
901.50000, 
902.00000, 
902.50000, 
903.00000, 
903.50000, 
904.00000, 
904.50000, 
905.00000, 
905.50000, 
906.00000, 
906.50000, 
907.00000, 
907.50000, 
908.00000, 
908.50000, 
909.00000, 
909.50000, 
910.00000, 
910.50000, 
911.00000, 
911.50000, 
912.00000, 
912.50000, 
913.00000, 
913.50000, 
914.00000, 
914.50000, 
915.00000, 
915.50000, 
916.00000, 
916.50000, 
917.00000, 
917.50000, 
918.00000, 
918.50000, 
919.00000, 
919.50000, 
920.00000, 
920.50000, 
921.00000, 
921.50000, 
922.00000, 
922.50000, 
923.00000, 
923.50000, 
924.00000, 
924.50000, 
925.00000, 
925.50000, 
926.00000, 
926.50000, 
927.00000, 
927.50000, 
928.00000, 
928.50000, 
929.00000, 
929.50000, 
930.00000, 
930.50000, 
931.00000, 
931.50000, 
932.00000, 
932.50000, 
933.00000, 
933.50000, 
934.00000, 
934.50000, 
935.00000, 
935.50000, 
936.00000, 
936.50000, 
937.00000, 
937.50000, 
938.00000, 
938.50000, 
939.00000, 
939.50000, 
940.00000, 
940.50000, 
941.00000, 
941.50000, 
942.00000, 
942.50000, 
943.00000, 
943.50000, 
944.00000, 
944.50000, 
945.00000, 
945.50000, 
946.00000, 
946.50000, 
947.00000, 
947.50000, 
948.00000, 
948.50000, 
949.00000, 
949.50000, 
950.00000, 
950.50000, 
951.00000, 
951.50000, 
952.00000, 
952.50000, 
953.00000, 
953.50000, 
954.00000, 
954.50000, 
955.00000, 
955.50000, 
956.00000, 
956.50000, 
957.00000, 
957.50000, 
958.00000, 
958.50000, 
959.00000, 
959.50000, 
960.00000, 
960.50000, 
961.00000, 
961.50000, 
962.00000, 
962.50000, 
963.00000, 
963.50000, 
964.00000, 
964.50000, 
965.00000, 
965.50000, 
966.00000, 
966.50000, 
967.00000, 
967.50000, 
968.00000, 
968.50000, 
969.00000, 
969.50000, 
970.00000, 
970.50000, 
971.00000, 
971.50000, 
972.00000, 
972.50000, 
973.00000, 
973.50000, 
974.00000, 
974.50000, 
975.00000, 
975.50000, 
976.00000, 
976.50000, 
977.00000, 
977.50000, 
978.00000, 
978.50000, 
979.00000, 
979.50000, 
980.00000, 
980.50000, 
981.00000, 
981.50000, 
982.00000, 
982.50000, 
983.00000, 
983.50000, 
984.00000, 
984.50000, 
985.00000, 
985.50000, 
986.00000, 
986.50000, 
987.00000, 
987.50000, 
988.00000, 
988.50000, 
989.00000, 
989.50000, 
990.00000, 
990.50000, 
991.00000, 
991.50000, 
992.00000, 
992.50000, 
993.00000, 
993.50000, 
994.00000, 
994.50000, 
995.00000, 
995.50000, 
996.00000, 
996.50000, 
997.00000, 
997.50000, 
998.00000, 
998.50000, 
999.00000, 
999.50000, 
1000.00000, 
1000.50000, 
1001.00000, 
1001.50000, 
1002.00000, 
1002.50000, 
1003.00000, 
1003.50000, 
1004.00000, 
1004.50000, 
1005.00000, 
1005.50000, 
1006.00000, 
1006.50000, 
1007.00000, 
1007.50000, 
1008.00000, 
1008.50000, 
1009.00000, 
1009.50000, 
1010.00000, 
1010.50000, 
1011.00000, 
1011.50000, 
1012.00000, 
1012.50000, 
1013.00000, 
1013.50000, 
1014.00000, 
1014.50000, 
1015.00000, 
1015.50000, 
1016.00000, 
1016.50000, 
1017.00000, 
1017.50000, 
1018.00000, 
1018.50000, 
1019.00000, 
1019.50000, 
1020.00000, 
1020.50000, 
1021.00000, 
1021.50000, 
1022.00000, 
1022.50000, 
1023.00000, 
1023.50000, 
1024.00000, 
1024.50000, 
1025.00000, 
1025.50000, 
1026.00000, 
1026.50000, 
1027.00000, 
1027.50000, 
1028.00000, 
1028.50000, 
1029.00000, 
1029.50000, 
1030.00000, 
1030.50000, 
1031.00000, 
1031.50000, 
1032.00000, 
1032.50000, 
1033.00000, 
1033.50000, 
1034.00000, 
1034.50000, 
1035.00000, 
1035.50000, 
1036.00000, 
1036.50000, 
1037.00000, 
1037.50000, 
1038.00000, 
1038.50000, 
1039.00000, 
1039.50000, 
1040.00000, 
1040.50000, 
1041.00000, 
1041.50000, 
1042.00000, 
1042.50000, 
1043.00000, 
1043.50000, 
1044.00000, 
1044.50000, 
1045.00000, 
1045.50000, 
1046.00000, 
1046.50000, 
1047.00000, 
1047.50000, 
1048.00000, 
1048.50000, 
1049.00000, 
1049.50000, 
1050.00000, 
1050.50000, 
1051.00000, 
1051.50000, 
1052.00000, 
1052.50000, 
1053.00000, 
1053.50000, 
1054.00000, 
1054.50000, 
1055.00000, 
1055.50000, 
1056.00000, 
1056.50000, 
1057.00000, 
1057.50000, 
1058.00000, 
1058.50000, 
1059.00000, 
1059.50000, 
1060.00000, 
1060.50000, 
1061.00000, 
1061.50000, 
1062.00000, 
1062.50000, 
1063.00000, 
1063.50000, 
1064.00000, 
1064.50000, 
1065.00000, 
1065.50000, 
1066.00000, 
1066.50000, 
1067.00000, 
1067.50000, 
1068.00000, 
1068.50000, 
1069.00000, 
1069.50000, 
1070.00000, 
1070.50000, 
1071.00000, 
1071.50000, 
1072.00000, 
1072.50000, 
1073.00000, 
1073.50000, 
1074.00000, 
1074.50000, 
1075.00000, 
1075.50000, 
1076.00000, 
1076.50000, 
1077.00000, 
1077.50000, 
1078.00000, 
1078.50000, 
1079.00000, 
1079.50000, 
1080.00000, 
1080.50000, 
1081.00000, 
1081.50000, 
1082.00000, 
1082.50000, 
1083.00000, 
1083.50000, 
1084.00000, 
1084.50000, 
1085.00000, 
1085.50000, 
1086.00000, 
1086.50000, 
1087.00000, 
1087.50000, 
1088.00000, 
1088.50000, 
1089.00000, 
1089.50000, 
1090.00000, 
1090.50000, 
1091.00000, 
1091.50000, 
1092.00000, 
1092.50000, 
1093.00000, 
1093.50000, 
1094.00000, 
1094.50000, 
1095.00000, 
1095.50000, 
1096.00000, 
1096.50000, 
1097.00000, 
1097.50000, 
1098.00000, 
1098.50000, 
1099.00000, 
1099.50000, 
1100.00000, 
