"30%V2 - RawData"
"Wavelength nm.","Abs."
300.00000,3.984283
300.50000, 
301.00000,3.948593
301.50000, 
302.00000,4.000000
302.50000, 
303.00000,3.964249
303.50000, 
304.00000,3.982483
304.50000, 
305.00000,3.948120
305.50000, 
306.00000,3.916962
306.50000, 
307.00000,3.941406
307.50000, 
308.00000,3.945084
308.50000, 
309.00000,4.000000
309.50000, 
310.00000,3.961578
310.50000, 
311.00000,3.990005
311.50000, 
312.00000,3.938965
312.50000, 
313.00000,3.949966
313.50000, 
314.00000,3.988281
314.50000, 
315.00000,3.936920
315.50000, 
316.00000,3.898483
316.50000, 
317.00000,3.963242
317.50000, 
318.00000,3.957291
318.50000, 
319.00000,3.987610
319.50000, 
320.00000,3.987442
320.50000, 
321.00000,3.995560
321.50000, 
322.00000,3.955490
322.50000, 
323.00000,3.928284
323.50000, 
324.00000,3.976791
324.50000, 
325.00000,3.877594
325.50000, 
326.00000,3.985931
326.50000, 
327.00000,3.958649
327.50000, 
328.00000,4.000000
328.50000, 
329.00000,3.985001
329.50000, 
330.00000,3.999100
330.50000, 
331.00000,3.943985
331.50000, 
332.00000,3.856461
332.50000, 
333.00000,3.997879
333.50000, 
334.00000,3.795639
334.50000, 
335.00000,3.919968
335.50000, 
336.00000,3.878143
336.50000, 
337.00000,3.865494
337.50000, 
338.00000,3.963867
338.50000, 
339.00000,3.925613
339.50000, 
340.00000,3.980698
340.50000, 
341.00000,3.881897
341.50000, 
342.00000,3.772369
342.50000, 
343.00000,3.931747
343.50000, 
344.00000,3.936996
344.50000, 
345.00000,3.971985
345.50000, 
346.00000,3.795639
346.50000, 
347.00000,3.972900
347.50000, 
348.00000,3.888977
348.50000, 
349.00000,3.767212
349.50000, 
350.00000,3.950394
350.50000, 
351.00000,3.958221
351.50000, 
352.00000,3.978912
352.50000, 
353.00000,3.984421
353.50000, 
354.00000,3.989197
354.50000, 
355.00000,3.981049
355.50000, 
356.00000,4.000000
356.50000, 
357.00000,4.000000
357.50000, 
358.00000,4.000000
358.50000, 
359.00000,3.935410
359.50000, 
360.00000,3.750397
360.50000, 
361.00000,3.873077
361.50000, 
362.00000,3.948654
362.50000, 
363.00000,4.000000
363.50000, 
364.00000,3.988815
364.50000, 
365.00000,3.914230
365.50000, 
366.00000,3.831741
366.50000, 
367.00000,3.992645
367.50000, 
368.00000,3.977875
368.50000, 
369.00000,3.926331
369.50000, 
370.00000,3.914474
370.50000, 
371.00000,3.867294
371.50000, 
372.00000,3.934662
372.50000, 
373.00000,3.884293
373.50000, 
374.00000,3.833420
374.50000, 
375.00000,3.897110
375.50000, 
376.00000,3.751831
376.50000, 
377.00000,3.969788
377.50000, 
378.00000,3.939621
378.50000, 
379.00000,3.826172
379.50000, 
380.00000,3.900925
380.50000, 
381.00000,3.641708
381.50000, 
382.00000,3.480515
382.50000, 
383.00000,3.286057
383.50000, 
384.00000,3.128891
384.50000, 
385.00000,2.858398
385.50000, 
386.00000,2.626984
386.50000, 
387.00000,2.447266
387.50000, 
388.00000,2.281387
388.50000, 
389.00000,2.130630
389.50000, 
390.00000,1.995087
390.50000, 
391.00000,1.873505
391.50000, 
392.00000,1.767578
392.50000, 
393.00000,1.676437
393.50000, 
394.00000,1.596939
394.50000, 
395.00000,1.531540
395.50000, 
396.00000,1.473343
396.50000, 
397.00000,1.425644
397.50000, 
398.00000,1.385803
398.50000, 
399.00000,1.351456
399.50000, 
400.00000,1.321838
400.50000, 
401.00000,1.295349
401.50000, 
402.00000,1.271210
402.50000, 
403.00000,1.249039
403.50000, 
404.00000,1.226685
404.50000, 
405.00000,1.207993
405.50000, 
406.00000,1.190262
406.50000, 
407.00000,1.173416
407.50000, 
408.00000,1.157974
408.50000, 
409.00000,1.145401
409.50000, 
410.00000,1.132889
410.50000, 
411.00000,1.122849
411.50000, 
412.00000,1.114212
412.50000, 
413.00000,1.106064
413.50000, 
414.00000,1.098160
414.50000, 
415.00000,1.091507
415.50000, 
416.00000,1.085526
416.50000, 
417.00000,1.079849
417.50000, 
418.00000,1.074585
418.50000, 
419.00000,1.070175
419.50000, 
420.00000,1.066452
420.50000, 
421.00000,1.062302
421.50000, 
422.00000,1.058792
422.50000, 
423.00000,1.055847
423.50000, 
424.00000,1.052460
424.50000, 
425.00000,1.049500
425.50000, 
426.00000,1.047134
426.50000, 
427.00000,1.044418
427.50000, 
428.00000,1.042450
428.50000, 
429.00000,1.040558
429.50000, 
430.00000,1.038498
430.50000, 
431.00000,1.037033
431.50000, 
432.00000,1.035294
432.50000, 
433.00000,1.034195
433.50000, 
434.00000,1.032684
434.50000, 
435.00000,1.031525
435.50000, 
436.00000,1.030396
436.50000, 
437.00000,1.028885
437.50000, 
438.00000,1.027405
438.50000, 
439.00000,1.026291
439.50000, 
440.00000,1.025177
440.50000, 
441.00000,1.023926
441.50000, 
442.00000,1.022598
442.50000, 
443.00000,1.021500
443.50000, 
444.00000,1.020645
444.50000, 
445.00000,1.019684
445.50000, 
446.00000,1.018524
446.50000, 
447.00000,1.017761
447.50000, 
448.00000,1.016800
448.50000, 
449.00000,1.015778
449.50000, 
450.00000,1.014984
450.50000, 
451.00000,1.014542
451.50000, 
452.00000,1.013611
452.50000, 
453.00000,1.012863
453.50000, 
454.00000,1.012070
454.50000, 
455.00000,1.011398
455.50000, 
456.00000,1.010620
456.50000, 
457.00000,1.010086
457.50000, 
458.00000,1.009460
458.50000, 
459.00000,1.008713
459.50000, 
460.00000,1.007950
460.50000, 
461.00000,1.007050
461.50000, 
462.00000,1.006592
462.50000, 
463.00000,1.005798
463.50000, 
464.00000,1.004791
464.50000, 
465.00000,1.003830
465.50000, 
466.00000,1.002762
466.50000, 
467.00000,1.001770
467.50000, 
468.00000,1.000504
468.50000, 
469.00000,0.998947
469.50000, 
470.00000,0.996872
470.50000, 
471.00000,0.994370
471.50000, 
472.00000,0.990524
472.50000, 
473.00000,0.984863
473.50000, 
474.00000,0.981827
474.50000, 
475.00000,0.983109
475.50000, 
476.00000,0.985504
476.50000, 
477.00000,0.988739
477.50000, 
478.00000,0.992859
478.50000, 
479.00000,0.997986
479.50000, 
480.00000,1.004501
480.50000, 
481.00000,1.012314
481.50000, 
482.00000,1.021362
482.50000, 
483.00000,1.032471
483.50000, 
484.00000,1.045792
484.50000, 
485.00000,1.060532
485.50000, 
486.00000,1.076599
486.50000, 
487.00000,1.094147
487.50000, 
488.00000,1.111450
488.50000, 
489.00000,1.128006
489.50000, 
490.00000,1.143158
490.50000, 
491.00000,1.155853
491.50000, 
492.00000,1.165619
492.50000, 
493.00000,1.172333
493.50000, 
494.00000,1.175613
494.50000, 
495.00000,1.176010
495.50000, 
496.00000,1.174072
496.50000, 
497.00000,1.170303
497.50000, 
498.00000,1.165009
498.50000, 
499.00000,1.158966
499.50000, 
500.00000,1.152390
500.50000, 
501.00000,1.145065
501.50000, 
502.00000,1.137787
502.50000, 
503.00000,1.130692
503.50000, 
504.00000,1.124054
504.50000, 
505.00000,1.117554
505.50000, 
506.00000,1.111053
506.50000, 
507.00000,1.105286
507.50000, 
508.00000,1.099503
508.50000, 
509.00000,1.094254
509.50000, 
510.00000,1.089264
510.50000, 
511.00000,1.084839
511.50000, 
512.00000,1.080490
512.50000, 
513.00000,1.076447
513.50000, 
514.00000,1.072891
514.50000, 
515.00000,1.069290
515.50000, 
516.00000,1.065903
516.50000, 
517.00000,1.062744
517.50000, 
518.00000,1.059723
518.50000, 
519.00000,1.056870
519.50000, 
520.00000,1.054153
520.50000, 
521.00000,1.051682
521.50000, 
522.00000,1.049255
522.50000, 
523.00000,1.046921
523.50000, 
524.00000,1.044617
524.50000, 
525.00000,1.042618
525.50000, 
526.00000,1.040314
526.50000, 
527.00000,1.038284
527.50000, 
528.00000,1.036285
528.50000, 
529.00000,1.034454
529.50000, 
530.00000,1.032684
530.50000, 
531.00000,1.031021
531.50000, 
532.00000,1.029434
532.50000, 
533.00000,1.027939
533.50000, 
534.00000,1.026352
534.50000, 
535.00000,1.025024
535.50000, 
536.00000,1.023544
536.50000, 
537.00000,1.021591
537.50000, 
538.00000,1.020340
538.50000, 
539.00000,1.019394
539.50000, 
540.00000,1.018250
540.50000, 
541.00000,1.017151
541.50000, 
542.00000,1.016113
542.50000, 
543.00000,1.015106
543.50000, 
544.00000,1.014053
544.50000, 
545.00000,1.013184
545.50000, 
546.00000,1.012146
546.50000, 
547.00000,1.011200
547.50000, 
548.00000,1.010178
548.50000, 
549.00000,1.009125
549.50000, 
550.00000,1.008026
550.50000, 
551.00000,1.006989
551.50000, 
552.00000,1.005814
552.50000, 
553.00000,1.004654
553.50000, 
554.00000,1.003464
554.50000, 
555.00000,1.002182
555.50000, 
556.00000,1.000946
556.50000, 
557.00000,0.999573
557.50000, 
558.00000,0.998169
558.50000, 
559.00000,0.996796
559.50000, 
560.00000,0.995483
560.50000, 
561.00000,0.993958
561.50000, 
562.00000,0.992447
562.50000, 
563.00000,0.991013
563.50000, 
564.00000,0.989380
564.50000, 
565.00000,0.987717
565.50000, 
566.00000,0.986160
566.50000, 
567.00000,0.984543
567.50000, 
568.00000,0.982910
568.50000, 
569.00000,0.981277
569.50000, 
570.00000,0.979630
570.50000, 
571.00000,0.977921
571.50000, 
572.00000,0.976379
572.50000, 
573.00000,0.974777
573.50000, 
574.00000,0.973328
574.50000, 
575.00000,0.971756
575.50000, 
576.00000,0.970154
576.50000, 
577.00000,0.968552
577.50000, 
578.00000,0.967102
578.50000, 
579.00000,0.965775
579.50000, 
580.00000,0.964493
580.50000, 
581.00000,0.963242
581.50000, 
582.00000,0.962143
582.50000, 
583.00000,0.960999
583.50000, 
584.00000,0.959915
584.50000, 
585.00000,0.958984
585.50000, 
586.00000,0.958237
586.50000, 
587.00000,0.957352
587.50000, 
588.00000,0.956543
588.50000, 
589.00000,0.955765
589.50000, 
590.00000,0.955139
590.50000, 
591.00000,0.954559
591.50000, 
592.00000,0.953949
592.50000, 
593.00000,0.953278
593.50000, 
594.00000,0.952698
594.50000, 
595.00000,0.951950
595.50000, 
596.00000,0.951309
596.50000, 
597.00000,0.950531
597.50000, 
598.00000,0.949921
598.50000, 
599.00000,0.949051
599.50000, 
600.00000,0.948151
600.50000, 
601.00000,0.947159
601.50000, 
602.00000,0.946014
602.50000, 
603.00000,0.944748
603.50000, 
604.00000,0.943420
604.50000, 
605.00000,0.942093
605.50000, 
606.00000,0.940552
606.50000, 
607.00000,0.938980
607.50000, 
608.00000,0.937164
608.50000, 
609.00000,0.935272
609.50000, 
610.00000,0.933334
610.50000, 
611.00000,0.931335
611.50000, 
612.00000,0.929214
612.50000, 
613.00000,0.927032
613.50000, 
614.00000,0.924789
614.50000, 
615.00000,0.922379
615.50000, 
616.00000,0.919861
616.50000, 
617.00000,0.917328
617.50000, 
618.00000,0.914703
618.50000, 
619.00000,0.912064
619.50000, 
620.00000,0.909454
620.50000, 
621.00000,0.906570
621.50000, 
622.00000,0.903625
622.50000, 
623.00000,0.900635
623.50000, 
624.00000,0.897507
624.50000, 
625.00000,0.894302
625.50000, 
626.00000,0.891052
626.50000, 
627.00000,0.887695
627.50000, 
628.00000,0.884140
628.50000, 
629.00000,0.880417
629.50000, 
630.00000,0.876297
630.50000, 
631.00000,0.871765
631.50000, 
632.00000,0.866180
632.50000, 
633.00000,0.858353
633.50000, 
634.00000,0.846542
634.50000, 
635.00000,0.843399
635.50000, 
636.00000,0.855286
636.50000, 
637.00000,0.872116
637.50000, 
638.00000,0.892838
638.50000, 
639.00000,0.918991
639.50000, 
640.00000,0.948914
640.50000, 
641.00000,0.982224
641.50000, 
642.00000,1.017670
642.50000, 
643.00000,1.051346
643.50000, 
644.00000,1.080841
644.50000, 
645.00000,1.103394
645.50000, 
646.00000,1.117371
646.50000, 
647.00000,1.122086
647.50000, 
648.00000,1.118484
648.50000, 
649.00000,1.108551
649.50000, 
650.00000,1.094620
650.50000, 
651.00000,1.078674
651.50000, 
652.00000,1.062103
652.50000, 
653.00000,1.045776
653.50000, 
654.00000,1.029861
654.50000, 
655.00000,1.015091
655.50000, 
656.00000,1.001617
656.50000, 
657.00000,0.989502
657.50000, 
658.00000,0.978271
658.50000, 
659.00000,0.967850
659.50000, 
660.00000,0.958038
660.50000, 
661.00000,0.949081
661.50000, 
662.00000,0.941055
662.50000, 
663.00000,0.933609
663.50000, 
664.00000,0.926819
664.50000, 
665.00000,0.920624
665.50000, 
666.00000,0.914902
666.50000, 
667.00000,0.909637
667.50000, 
668.00000,0.904602
668.50000, 
669.00000,0.899918
669.50000, 
670.00000,0.895401
670.50000, 
671.00000,0.891266
671.50000, 
672.00000,0.887222
672.50000, 
673.00000,0.883621
673.50000, 
674.00000,0.880051
674.50000, 
675.00000,0.876694
675.50000, 
676.00000,0.873489
676.50000, 
677.00000,0.870621
677.50000, 
678.00000,0.867859
678.50000, 
679.00000,0.865219
679.50000, 
680.00000,0.862549
680.50000, 
681.00000,0.860153
681.50000, 
682.00000,0.857803
682.50000, 
683.00000,0.855743
683.50000, 
684.00000,0.853699
684.50000, 
685.00000,0.851807
685.50000, 
686.00000,0.849884
686.50000, 
687.00000,0.848175
687.50000, 
688.00000,0.846405
688.50000, 
689.00000,0.844772
689.50000, 
690.00000,0.843140
690.50000, 
691.00000,0.841660
691.50000, 
692.00000,0.840164
692.50000, 
693.00000,0.838882
693.50000, 
694.00000,0.837463
694.50000, 
695.00000,0.836105
695.50000, 
696.00000,0.834747
696.50000, 
697.00000,0.833527
697.50000, 
698.00000,0.832291
698.50000, 
699.00000,0.831070
699.50000, 
700.00000,0.829758
700.50000, 
701.00000,0.828629
701.50000, 
702.00000,0.827621
702.50000, 
703.00000,0.826630
703.50000, 
704.00000,0.825562
704.50000, 
705.00000,0.824509
705.50000, 
706.00000,0.823563
706.50000, 
707.00000,0.822403
707.50000, 
708.00000,0.821503
708.50000, 
709.00000,0.820419
709.50000, 
710.00000,0.819382
710.50000, 
711.00000,0.818329
711.50000, 
712.00000,0.817261
712.50000, 
713.00000,0.816254
713.50000, 
714.00000,0.815186
714.50000, 
715.00000,0.814102
715.50000, 
716.00000,0.812927
716.50000, 
717.00000,0.811920
717.50000, 
718.00000,0.810745
718.50000, 
719.00000,0.809799
719.50000, 
720.00000,0.808609
720.50000, 
721.00000,0.807556
721.50000, 
722.00000,0.806534
722.50000, 
723.00000,0.805527
723.50000, 
724.00000,0.804657
724.50000, 
725.00000,0.803696
725.50000, 
726.00000,0.802780
726.50000, 
727.00000,0.801849
727.50000, 
728.00000,0.801010
728.50000, 
729.00000,0.800140
729.50000, 
730.00000,0.799393
730.50000, 
731.00000,0.798569
731.50000, 
732.00000,0.797806
732.50000, 
733.00000,0.797134
733.50000, 
734.00000,0.796310
734.50000, 
735.00000,0.795654
735.50000, 
736.00000,0.795013
736.50000, 
737.00000,0.794403
737.50000, 
738.00000,0.793701
738.50000, 
739.00000,0.793060
739.50000, 
740.00000,0.792496
740.50000, 
741.00000,0.791901
741.50000, 
742.00000,0.791260
742.50000, 
743.00000,0.790680
743.50000, 
744.00000,0.790070
744.50000, 
745.00000,0.789520
745.50000, 
746.00000,0.788849
746.50000, 
747.00000,0.788269
747.50000, 
748.00000,0.787582
748.50000, 
749.00000,0.786987
749.50000, 
750.00000,0.786575
750.50000, 
751.00000,0.785934
751.50000, 
752.00000,0.785522
752.50000, 
753.00000,0.785141
753.50000, 
754.00000,0.784760
754.50000, 
755.00000,0.784271
755.50000, 
756.00000,0.783707
756.50000, 
757.00000,0.783157
757.50000, 
758.00000,0.782837
758.50000, 
759.00000,0.782379
759.50000, 
760.00000,0.782227
760.50000, 
761.00000,0.781784
761.50000, 
762.00000,0.781235
762.50000, 
763.00000,0.781052
763.50000, 
764.00000,0.780472
764.50000, 
765.00000,0.780304
765.50000, 
766.00000,0.779770
766.50000, 
767.00000,0.779510
767.50000, 
768.00000,0.779266
768.50000, 
769.00000,0.778793
769.50000, 
770.00000,0.778580
770.50000, 
771.00000,0.778137
771.50000, 
772.00000,0.777863
772.50000, 
773.00000,0.777512
773.50000, 
774.00000,0.777176
774.50000, 
775.00000,0.776733
775.50000, 
776.00000,0.776489
776.50000, 
777.00000,0.776031
777.50000, 
778.00000,0.775940
778.50000, 
779.00000,0.775513
779.50000, 
780.00000,0.775192
780.50000, 
781.00000,0.774948
781.50000, 
782.00000,0.774521
782.50000, 
783.00000,0.774170
783.50000, 
784.00000,0.773773
784.50000, 
785.00000,0.773270
785.50000, 
786.00000,0.772888
786.50000, 
787.00000,0.772446
787.50000, 
788.00000,0.771774
788.50000, 
789.00000,0.771500
789.50000, 
790.00000,0.770737
790.50000, 
791.00000,0.770355
791.50000, 
792.00000,0.769562
792.50000, 
793.00000,0.768875
793.50000, 
794.00000,0.768204
794.50000, 
795.00000,0.767456
795.50000, 
796.00000,0.766449
796.50000, 
797.00000,0.765961
797.50000, 
798.00000,0.764664
798.50000, 
799.00000,0.763824
799.50000, 
800.00000,0.762726
800.50000, 
801.00000,0.761398
801.50000, 
802.00000,0.760101
802.50000, 
803.00000,0.759094
803.50000, 
804.00000,0.757278
804.50000, 
805.00000,0.756042
805.50000, 
806.00000,0.754364
806.50000, 
807.00000,0.752640
807.50000, 
808.00000,0.750839
808.50000, 
809.00000,0.748901
809.50000, 
810.00000,0.746384
810.50000, 
811.00000,0.744583
811.50000, 
812.00000,0.741959
812.50000, 
813.00000,0.739548
813.50000, 
814.00000,0.736969
814.50000, 
815.00000,0.734207
815.50000, 
816.00000,0.730942
816.50000, 
817.00000,0.728317
817.50000, 
818.00000,0.724625
818.50000, 
819.00000,0.721542
819.50000, 
820.00000,0.718216
820.50000, 
821.00000,0.714539
821.50000, 
822.00000,0.710876
822.50000, 
823.00000,0.707352
823.50000, 
824.00000,0.703186
824.50000, 
825.00000,0.699280
825.50000, 
826.00000,0.695496
826.50000, 
827.00000,0.690796
827.50000, 
828.00000,0.686386
828.50000, 
829.00000,0.682053
829.50000, 
830.00000,0.677505
830.50000, 
831.00000,0.672501
831.50000, 
832.00000,0.668030
832.50000, 
833.00000,0.662582
833.50000, 
834.00000,0.657608
834.50000, 
835.00000,0.652588
835.50000, 
836.00000,0.646973
836.50000, 
837.00000,0.641434
837.50000, 
838.00000,0.636185
838.50000, 
839.00000,0.630051
839.50000, 
840.00000,0.624710
840.50000, 
841.00000,0.619659
841.50000, 
842.00000,0.613586
842.50000, 
843.00000,0.607849
843.50000, 
844.00000,0.602264
844.50000, 
845.00000,0.596542
845.50000, 
846.00000,0.590530
846.50000, 
847.00000,0.585449
847.50000, 
848.00000,0.579559
848.50000, 
849.00000,0.573517
849.50000, 
850.00000,0.568268
850.50000, 
851.00000,0.562485
851.50000, 
852.00000,0.556625
852.50000, 
853.00000,0.550949
853.50000, 
854.00000,0.545364
854.50000, 
855.00000,0.538834
855.50000, 
856.00000,0.533386
856.50000, 
857.00000,0.527817
857.50000, 
858.00000,0.521545
858.50000, 
859.00000,0.515839
859.50000, 
860.00000,0.510345
860.50000, 
861.00000,0.504517
861.50000, 
862.00000,0.498581
862.50000, 
863.00000,0.493591
863.50000, 
864.00000,0.487717
864.50000, 
865.00000,0.482193
865.50000, 
866.00000,0.477386
866.50000, 
867.00000,0.472382
867.50000, 
868.00000,0.466812
868.50000, 
869.00000,0.461884
869.50000, 
870.00000,0.457458
870.50000, 
871.00000,0.452026
871.50000, 
872.00000,0.447144
872.50000, 
873.00000,0.442719
873.50000, 
874.00000,0.437866
874.50000, 
875.00000,0.432892
875.50000, 
876.00000,0.428635
876.50000, 
877.00000,0.424194
877.50000, 
878.00000,0.419052
878.50000, 
879.00000,0.414948
879.50000, 
880.00000,0.410721
880.50000, 
881.00000,0.405792
881.50000, 
882.00000,0.401443
882.50000, 
883.00000,0.397705
883.50000, 
884.00000,0.393311
884.50000, 
885.00000,0.388962
885.50000, 
886.00000,0.385666
886.50000, 
887.00000,0.382019
887.50000, 
888.00000,0.377640
888.50000, 
889.00000,0.374252
889.50000, 
890.00000,0.371353
890.50000, 
891.00000,0.367401
891.50000, 
892.00000,0.363724
892.50000, 
893.00000,0.361191
893.50000, 
894.00000,0.357910
894.50000, 
895.00000,0.354401
895.50000, 
896.00000,0.351440
896.50000, 
897.00000,0.348831
897.50000, 
898.00000,0.345627
898.50000, 
899.00000,0.342270
899.50000, 
900.00000,0.340622
900.50000, 
901.00000, 
901.50000, 
902.00000, 
902.50000, 
903.00000, 
903.50000, 
904.00000, 
904.50000, 
905.00000, 
905.50000, 
906.00000, 
906.50000, 
907.00000, 
907.50000, 
908.00000, 
908.50000, 
909.00000, 
909.50000, 
910.00000, 
910.50000, 
911.00000, 
911.50000, 
912.00000, 
912.50000, 
913.00000, 
913.50000, 
914.00000, 
914.50000, 
915.00000, 
915.50000, 
916.00000, 
916.50000, 
917.00000, 
917.50000, 
918.00000, 
918.50000, 
919.00000, 
919.50000, 
920.00000, 
920.50000, 
921.00000, 
921.50000, 
922.00000, 
922.50000, 
923.00000, 
923.50000, 
924.00000, 
924.50000, 
925.00000, 
925.50000, 
926.00000, 
926.50000, 
927.00000, 
927.50000, 
928.00000, 
928.50000, 
929.00000, 
929.50000, 
930.00000, 
930.50000, 
931.00000, 
931.50000, 
932.00000, 
932.50000, 
933.00000, 
933.50000, 
934.00000, 
934.50000, 
935.00000, 
935.50000, 
936.00000, 
936.50000, 
937.00000, 
937.50000, 
938.00000, 
938.50000, 
939.00000, 
939.50000, 
940.00000, 
940.50000, 
941.00000, 
941.50000, 
942.00000, 
942.50000, 
943.00000, 
943.50000, 
944.00000, 
944.50000, 
945.00000, 
945.50000, 
946.00000, 
946.50000, 
947.00000, 
947.50000, 
948.00000, 
948.50000, 
949.00000, 
949.50000, 
950.00000, 
950.50000, 
951.00000, 
951.50000, 
952.00000, 
952.50000, 
953.00000, 
953.50000, 
954.00000, 
954.50000, 
955.00000, 
955.50000, 
956.00000, 
956.50000, 
957.00000, 
957.50000, 
958.00000, 
958.50000, 
959.00000, 
959.50000, 
960.00000, 
960.50000, 
961.00000, 
961.50000, 
962.00000, 
962.50000, 
963.00000, 
963.50000, 
964.00000, 
964.50000, 
965.00000, 
965.50000, 
966.00000, 
966.50000, 
967.00000, 
967.50000, 
968.00000, 
968.50000, 
969.00000, 
969.50000, 
970.00000, 
970.50000, 
971.00000, 
971.50000, 
972.00000, 
972.50000, 
973.00000, 
973.50000, 
974.00000, 
974.50000, 
975.00000, 
975.50000, 
976.00000, 
976.50000, 
977.00000, 
977.50000, 
978.00000, 
978.50000, 
979.00000, 
979.50000, 
980.00000, 
980.50000, 
981.00000, 
981.50000, 
982.00000, 
982.50000, 
983.00000, 
983.50000, 
984.00000, 
984.50000, 
985.00000, 
985.50000, 
986.00000, 
986.50000, 
987.00000, 
987.50000, 
988.00000, 
988.50000, 
989.00000, 
989.50000, 
990.00000, 
990.50000, 
991.00000, 
991.50000, 
992.00000, 
992.50000, 
993.00000, 
993.50000, 
994.00000, 
994.50000, 
995.00000, 
995.50000, 
996.00000, 
996.50000, 
997.00000, 
997.50000, 
998.00000, 
998.50000, 
999.00000, 
999.50000, 
1000.00000, 
1000.50000, 
1001.00000, 
1001.50000, 
1002.00000, 
1002.50000, 
1003.00000, 
1003.50000, 
1004.00000, 
1004.50000, 
1005.00000, 
1005.50000, 
1006.00000, 
1006.50000, 
1007.00000, 
1007.50000, 
1008.00000, 
1008.50000, 
1009.00000, 
1009.50000, 
1010.00000, 
1010.50000, 
1011.00000, 
1011.50000, 
1012.00000, 
1012.50000, 
1013.00000, 
1013.50000, 
1014.00000, 
1014.50000, 
1015.00000, 
1015.50000, 
1016.00000, 
1016.50000, 
1017.00000, 
1017.50000, 
1018.00000, 
1018.50000, 
1019.00000, 
1019.50000, 
1020.00000, 
1020.50000, 
1021.00000, 
1021.50000, 
1022.00000, 
1022.50000, 
1023.00000, 
1023.50000, 
1024.00000, 
1024.50000, 
1025.00000, 
1025.50000, 
1026.00000, 
1026.50000, 
1027.00000, 
1027.50000, 
1028.00000, 
1028.50000, 
1029.00000, 
1029.50000, 
1030.00000, 
1030.50000, 
1031.00000, 
1031.50000, 
1032.00000, 
1032.50000, 
1033.00000, 
1033.50000, 
1034.00000, 
1034.50000, 
1035.00000, 
1035.50000, 
1036.00000, 
1036.50000, 
1037.00000, 
1037.50000, 
1038.00000, 
1038.50000, 
1039.00000, 
1039.50000, 
1040.00000, 
1040.50000, 
1041.00000, 
1041.50000, 
1042.00000, 
1042.50000, 
1043.00000, 
1043.50000, 
1044.00000, 
1044.50000, 
1045.00000, 
1045.50000, 
1046.00000, 
1046.50000, 
1047.00000, 
1047.50000, 
1048.00000, 
1048.50000, 
1049.00000, 
1049.50000, 
1050.00000, 
1050.50000, 
1051.00000, 
1051.50000, 
1052.00000, 
1052.50000, 
1053.00000, 
1053.50000, 
1054.00000, 
1054.50000, 
1055.00000, 
1055.50000, 
1056.00000, 
1056.50000, 
1057.00000, 
1057.50000, 
1058.00000, 
1058.50000, 
1059.00000, 
1059.50000, 
1060.00000, 
1060.50000, 
1061.00000, 
1061.50000, 
1062.00000, 
1062.50000, 
1063.00000, 
1063.50000, 
1064.00000, 
1064.50000, 
1065.00000, 
1065.50000, 
1066.00000, 
1066.50000, 
1067.00000, 
1067.50000, 
1068.00000, 
1068.50000, 
1069.00000, 
1069.50000, 
1070.00000, 
1070.50000, 
1071.00000, 
1071.50000, 
1072.00000, 
1072.50000, 
1073.00000, 
1073.50000, 
1074.00000, 
1074.50000, 
1075.00000, 
1075.50000, 
1076.00000, 
1076.50000, 
1077.00000, 
1077.50000, 
1078.00000, 
1078.50000, 
1079.00000, 
1079.50000, 
1080.00000, 
1080.50000, 
1081.00000, 
1081.50000, 
1082.00000, 
1082.50000, 
1083.00000, 
1083.50000, 
1084.00000, 
1084.50000, 
1085.00000, 
1085.50000, 
1086.00000, 
1086.50000, 
1087.00000, 
1087.50000, 
1088.00000, 
1088.50000, 
1089.00000, 
1089.50000, 
1090.00000, 
1090.50000, 
1091.00000, 
1091.50000, 
1092.00000, 
1092.50000, 
1093.00000, 
1093.50000, 
1094.00000, 
1094.50000, 
1095.00000, 
1095.50000, 
1096.00000, 
1096.50000, 
1097.00000, 
1097.50000, 
1098.00000, 
1098.50000, 
1099.00000, 
1099.50000, 
1100.00000, 
