"40%2 - RawData"
"Wavelength nm.","Abs."
300.00000,0.668182
300.50000, 
301.00000,0.665344
301.50000, 
302.00000,0.661392
302.50000, 
303.00000,0.657928
303.50000, 
304.00000,0.654419
304.50000, 
305.00000,0.651138
305.50000, 
306.00000,0.647720
306.50000, 
307.00000,0.644653
307.50000, 
308.00000,0.641205
308.50000, 
309.00000,0.638519
309.50000, 
310.00000,0.634995
310.50000, 
311.00000,0.632385
311.50000, 
312.00000,0.629807
312.50000, 
313.00000,0.627029
313.50000, 
314.00000,0.624405
314.50000, 
315.00000,0.622116
315.50000, 
316.00000,0.620377
316.50000, 
317.00000,0.618256
317.50000, 
318.00000,0.616745
318.50000, 
319.00000,0.615158
319.50000, 
320.00000,0.614120
320.50000, 
321.00000,0.612396
321.50000, 
322.00000,0.611206
322.50000, 
323.00000,0.610016
323.50000, 
324.00000,0.609360
324.50000, 
325.00000,0.608734
325.50000, 
326.00000,0.608353
326.50000, 
327.00000,0.607941
327.50000, 
328.00000,0.607040
328.50000, 
329.00000,0.606903
329.50000, 
330.00000,0.606430
330.50000, 
331.00000,0.605347
331.50000, 
332.00000,0.604996
332.50000, 
333.00000,0.604294
333.50000, 
334.00000,0.602631
334.50000, 
335.00000,0.601730
335.50000, 
336.00000,0.600739
336.50000, 
337.00000,0.598969
337.50000, 
338.00000,0.597336
338.50000, 
339.00000,0.595398
339.50000, 
340.00000,0.592636
340.50000, 
341.00000,0.589615
341.50000, 
342.00000,0.587463
342.50000, 
343.00000,0.584839
343.50000, 
344.00000,0.581772
344.50000, 
345.00000,0.578735
345.50000, 
346.00000,0.576645
346.50000, 
347.00000,0.572983
347.50000, 
348.00000,0.570663
348.50000, 
349.00000,0.568115
349.50000, 
350.00000,0.564865
350.50000, 
351.00000,0.561569
351.50000, 
352.00000,0.558777
352.50000, 
353.00000,0.556107
353.50000, 
354.00000,0.552917
354.50000, 
355.00000,0.549667
355.50000, 
356.00000,0.546494
356.50000, 
357.00000,0.543655
357.50000, 
358.00000,0.541046
358.50000, 
359.00000,0.538269
359.50000, 
360.00000,0.535477
360.50000, 
361.00000,0.532379
361.50000, 
362.00000,0.530258
362.50000, 
363.00000,0.528198
363.50000, 
364.00000,0.526016
364.50000, 
365.00000,0.523499
365.50000, 
366.00000,0.520737
366.50000, 
367.00000,0.518387
367.50000, 
368.00000,0.516617
368.50000, 
369.00000,0.514404
369.50000, 
370.00000,0.512512
370.50000, 
371.00000,0.510040
371.50000, 
372.00000,0.508011
372.50000, 
373.00000,0.506393
373.50000, 
374.00000,0.504227
374.50000, 
375.00000,0.502029
375.50000, 
376.00000,0.500107
376.50000, 
377.00000,0.498062
377.50000, 
378.00000,0.496292
378.50000, 
379.00000,0.494232
379.50000, 
380.00000,0.492859
380.50000, 
381.00000,0.490936
381.50000, 
382.00000,0.489319
382.50000, 
383.00000,0.487839
383.50000, 
384.00000,0.486130
384.50000, 
385.00000,0.484604
385.50000, 
386.00000,0.483078
386.50000, 
387.00000,0.481888
387.50000, 
388.00000,0.480438
388.50000, 
389.00000,0.479080
389.50000, 
390.00000,0.477814
390.50000, 
391.00000,0.476669
391.50000, 
392.00000,0.475525
392.50000, 
393.00000,0.474457
393.50000, 
394.00000,0.473358
394.50000, 
395.00000,0.472351
395.50000, 
396.00000,0.471497
396.50000, 
397.00000,0.470535
397.50000, 
398.00000,0.469757
398.50000, 
399.00000,0.468903
399.50000, 
400.00000,0.468109
400.50000, 
401.00000,0.467331
401.50000, 
402.00000,0.466553
402.50000, 
403.00000,0.465942
403.50000, 
404.00000,0.465302
404.50000, 
405.00000,0.464798
405.50000, 
406.00000,0.464310
406.50000, 
407.00000,0.463913
407.50000, 
408.00000,0.463623
408.50000, 
409.00000,0.463303
409.50000, 
410.00000,0.463028
410.50000, 
411.00000,0.462936
411.50000, 
412.00000,0.462708
412.50000, 
413.00000,0.462372
413.50000, 
414.00000,0.462250
414.50000, 
415.00000,0.461914
415.50000, 
416.00000,0.461746
416.50000, 
417.00000,0.461838
417.50000, 
418.00000,0.461655
418.50000, 
419.00000,0.461380
419.50000, 
420.00000,0.461243
420.50000, 
421.00000,0.461105
421.50000, 
422.00000,0.461029
422.50000, 
423.00000,0.460876
423.50000, 
424.00000,0.460800
424.50000, 
425.00000,0.460724
425.50000, 
426.00000,0.460785
426.50000, 
427.00000,0.460846
427.50000, 
428.00000,0.461105
428.50000, 
429.00000,0.461349
429.50000, 
430.00000,0.461655
430.50000, 
431.00000,0.462006
431.50000, 
432.00000,0.462311
432.50000, 
433.00000,0.462738
433.50000, 
434.00000,0.463181
434.50000, 
435.00000,0.463516
435.50000, 
436.00000,0.463684
436.50000, 
437.00000,0.463928
437.50000, 
438.00000,0.464096
438.50000, 
439.00000,0.464294
439.50000, 
440.00000,0.464478
440.50000, 
441.00000,0.464523
441.50000, 
442.00000,0.464737
442.50000, 
443.00000,0.464874
443.50000, 
444.00000,0.465012
444.50000, 
445.00000,0.465286
445.50000, 
446.00000,0.465546
446.50000, 
447.00000,0.465729
447.50000, 
448.00000,0.465988
448.50000, 
449.00000,0.466141
449.50000, 
450.00000,0.466309
450.50000, 
451.00000,0.466736
451.50000, 
452.00000,0.466965
452.50000, 
453.00000,0.467285
453.50000, 
454.00000,0.467590
454.50000, 
455.00000,0.467926
455.50000, 
456.00000,0.468231
456.50000, 
457.00000,0.468567
457.50000, 
458.00000,0.468781
458.50000, 
459.00000,0.469131
459.50000, 
460.00000,0.469467
460.50000, 
461.00000,0.469803
461.50000, 
462.00000,0.470047
462.50000, 
463.00000,0.470322
463.50000, 
464.00000,0.470612
464.50000, 
465.00000,0.470886
465.50000, 
466.00000,0.471069
466.50000, 
467.00000,0.471329
467.50000, 
468.00000,0.471649
468.50000, 
469.00000,0.471817
469.50000, 
470.00000,0.471985
470.50000, 
471.00000,0.472137
471.50000, 
472.00000,0.472183
472.50000, 
473.00000,0.472412
473.50000, 
474.00000,0.472443
474.50000, 
475.00000,0.472488
475.50000, 
476.00000,0.472610
476.50000, 
477.00000,0.472717
477.50000, 
478.00000,0.472855
478.50000, 
479.00000,0.472961
479.50000, 
480.00000,0.473053
480.50000, 
481.00000,0.473083
481.50000, 
482.00000,0.473190
482.50000, 
483.00000,0.473282
483.50000, 
484.00000,0.473358
484.50000, 
485.00000,0.473480
485.50000, 
486.00000,0.473526
486.50000, 
487.00000,0.473526
487.50000, 
488.00000,0.473572
488.50000, 
489.00000,0.473572
489.50000, 
490.00000,0.473557
490.50000, 
491.00000,0.473511
491.50000, 
492.00000,0.473404
492.50000, 
493.00000,0.473236
493.50000, 
494.00000,0.473022
494.50000, 
495.00000,0.472794
495.50000, 
496.00000,0.472534
496.50000, 
497.00000,0.472168
497.50000, 
498.00000,0.471848
498.50000, 
499.00000,0.471558
499.50000, 
500.00000,0.471130
500.50000, 
501.00000,0.470749
501.50000, 
502.00000,0.470291
502.50000, 
503.00000,0.469864
503.50000, 
504.00000,0.469421
504.50000, 
505.00000,0.468903
505.50000, 
506.00000,0.468323
506.50000, 
507.00000,0.467712
507.50000, 
508.00000,0.467148
508.50000, 
509.00000,0.466583
509.50000, 
510.00000,0.465942
510.50000, 
511.00000,0.465317
511.50000, 
512.00000,0.464584
512.50000, 
513.00000,0.463867
513.50000, 
514.00000,0.463287
514.50000, 
515.00000,0.462601
515.50000, 
516.00000,0.461761
516.50000, 
517.00000,0.461014
517.50000, 
518.00000,0.460220
518.50000, 
519.00000,0.459366
519.50000, 
520.00000,0.458481
520.50000, 
521.00000,0.457626
521.50000, 
522.00000,0.456741
522.50000, 
523.00000,0.455917
523.50000, 
524.00000,0.454926
524.50000, 
525.00000,0.453995
525.50000, 
526.00000,0.453079
526.50000, 
527.00000,0.452103
527.50000, 
528.00000,0.451141
528.50000, 
529.00000,0.450104
529.50000, 
530.00000,0.449158
530.50000, 
531.00000,0.448151
531.50000, 
532.00000,0.447266
532.50000, 
533.00000,0.446259
533.50000, 
534.00000,0.445206
534.50000, 
535.00000,0.444382
535.50000, 
536.00000,0.443314
536.50000, 
537.00000,0.442001
537.50000, 
538.00000,0.441010
538.50000, 
539.00000,0.440109
539.50000, 
540.00000,0.439285
540.50000, 
541.00000,0.438385
541.50000, 
542.00000,0.437454
542.50000, 
543.00000,0.436417
543.50000, 
544.00000,0.435516
544.50000, 
545.00000,0.434586
545.50000, 
546.00000,0.433609
546.50000, 
547.00000,0.432587
547.50000, 
548.00000,0.431625
548.50000, 
549.00000,0.430481
549.50000, 
550.00000,0.429245
550.50000, 
551.00000,0.428146
551.50000, 
552.00000,0.426926
552.50000, 
553.00000,0.425659
553.50000, 
554.00000,0.424362
554.50000, 
555.00000,0.422989
555.50000, 
556.00000,0.421524
556.50000, 
557.00000,0.420059
557.50000, 
558.00000,0.418503
558.50000, 
559.00000,0.416931
559.50000, 
560.00000,0.415451
560.50000, 
561.00000,0.413849
561.50000, 
562.00000,0.412155
562.50000, 
563.00000,0.410522
563.50000, 
564.00000,0.408752
564.50000, 
565.00000,0.406967
565.50000, 
566.00000,0.405182
566.50000, 
567.00000,0.403427
567.50000, 
568.00000,0.401550
568.50000, 
569.00000,0.399673
569.50000, 
570.00000,0.397903
570.50000, 
571.00000,0.396088
571.50000, 
572.00000,0.394226
572.50000, 
573.00000,0.392456
573.50000, 
574.00000,0.390671
574.50000, 
575.00000,0.388809
575.50000, 
576.00000,0.386993
576.50000, 
577.00000,0.385239
577.50000, 
578.00000,0.383469
578.50000, 
579.00000,0.381790
579.50000, 
580.00000,0.380173
580.50000, 
581.00000,0.378525
581.50000, 
582.00000,0.376999
582.50000, 
583.00000,0.375580
583.50000, 
584.00000,0.374100
584.50000, 
585.00000,0.372833
585.50000, 
586.00000,0.371613
586.50000, 
587.00000,0.370407
587.50000, 
588.00000,0.369202
588.50000, 
589.00000,0.368118
589.50000, 
590.00000,0.367004
590.50000, 
591.00000,0.365952
591.50000, 
592.00000,0.365005
592.50000, 
593.00000,0.363907
593.50000, 
594.00000,0.362823
594.50000, 
595.00000,0.361694
595.50000, 
596.00000,0.360641
596.50000, 
597.00000,0.359543
597.50000, 
598.00000,0.358429
598.50000, 
599.00000,0.357208
599.50000, 
600.00000,0.355927
600.50000, 
601.00000,0.354568
601.50000, 
602.00000,0.353058
602.50000, 
603.00000,0.351410
603.50000, 
604.00000,0.349701
604.50000, 
605.00000,0.347977
605.50000, 
606.00000,0.346100
606.50000, 
607.00000,0.344208
607.50000, 
608.00000,0.342178
608.50000, 
609.00000,0.340057
609.50000, 
610.00000,0.337769
610.50000, 
611.00000,0.335556
611.50000, 
612.00000,0.333099
612.50000, 
613.00000,0.330658
613.50000, 
614.00000,0.328201
614.50000, 
615.00000,0.325592
615.50000, 
616.00000,0.322876
616.50000, 
617.00000,0.320251
617.50000, 
618.00000,0.317429
618.50000, 
619.00000,0.314636
619.50000, 
620.00000,0.311920
620.50000, 
621.00000,0.309021
621.50000, 
622.00000,0.306152
622.50000, 
623.00000,0.303207
623.50000, 
624.00000,0.300186
624.50000, 
625.00000,0.297134
625.50000, 
626.00000,0.294098
626.50000, 
627.00000,0.291153
627.50000, 
628.00000,0.288116
628.50000, 
629.00000,0.285202
629.50000, 
630.00000,0.282425
630.50000, 
631.00000,0.279648
631.50000, 
632.00000,0.276993
632.50000, 
633.00000,0.274353
633.50000, 
634.00000,0.271637
634.50000, 
635.00000,0.268982
635.50000, 
636.00000,0.266785
636.50000, 
637.00000,0.264633
637.50000, 
638.00000,0.262711
638.50000, 
639.00000,0.260788
639.50000, 
640.00000,0.259018
640.50000, 
641.00000,0.257309
641.50000, 
642.00000,0.255676
642.50000, 
643.00000,0.254150
643.50000, 
644.00000,0.252609
644.50000, 
645.00000,0.251053
645.50000, 
646.00000,0.249481
646.50000, 
647.00000,0.247910
647.50000, 
648.00000,0.246292
648.50000, 
649.00000,0.244705
649.50000, 
650.00000,0.243179
650.50000, 
651.00000,0.241730
651.50000, 
652.00000,0.240265
652.50000, 
653.00000,0.238907
653.50000, 
654.00000,0.237625
654.50000, 
655.00000,0.236420
655.50000, 
656.00000,0.235168
656.50000, 
657.00000,0.234055
657.50000, 
658.00000,0.233017
658.50000, 
659.00000,0.231995
659.50000, 
660.00000,0.231018
660.50000, 
661.00000,0.230103
661.50000, 
662.00000,0.229233
662.50000, 
663.00000,0.228302
663.50000, 
664.00000,0.227493
664.50000, 
665.00000,0.226776
665.50000, 
666.00000,0.226135
666.50000, 
667.00000,0.225464
667.50000, 
668.00000,0.224747
668.50000, 
669.00000,0.224106
669.50000, 
670.00000,0.223511
670.50000, 
671.00000,0.223007
671.50000, 
672.00000,0.222443
672.50000, 
673.00000,0.221970
673.50000, 
674.00000,0.221405
674.50000, 
675.00000,0.220901
675.50000, 
676.00000,0.220367
676.50000, 
677.00000,0.219894
677.50000, 
678.00000,0.219498
678.50000, 
679.00000,0.219040
679.50000, 
680.00000,0.218613
680.50000, 
681.00000,0.218201
681.50000, 
682.00000,0.217789
682.50000, 
683.00000,0.217468
683.50000, 
684.00000,0.217163
684.50000, 
685.00000,0.216827
685.50000, 
686.00000,0.216599
686.50000, 
687.00000,0.216248
687.50000, 
688.00000,0.215958
688.50000, 
689.00000,0.215714
689.50000, 
690.00000,0.215485
690.50000, 
691.00000,0.215240
691.50000, 
692.00000,0.214996
692.50000, 
693.00000,0.214767
693.50000, 
694.00000,0.214584
694.50000, 
695.00000,0.214355
695.50000, 
696.00000,0.214188
696.50000, 
697.00000,0.214005
697.50000, 
698.00000,0.213806
698.50000, 
699.00000,0.213654
699.50000, 
700.00000,0.213470
700.50000, 
701.00000,0.213257
701.50000, 
702.00000,0.213104
702.50000, 
703.00000,0.212967
703.50000, 
704.00000,0.212830
704.50000, 
705.00000,0.212662
705.50000, 
706.00000,0.212418
706.50000, 
707.00000,0.212189
707.50000, 
708.00000,0.211990
708.50000, 
709.00000,0.211716
709.50000, 
710.00000,0.211380
710.50000, 
711.00000,0.211121
711.50000, 
712.00000,0.210770
712.50000, 
713.00000,0.210403
713.50000, 
714.00000,0.209946
714.50000, 
715.00000,0.209534
715.50000, 
716.00000,0.209122
716.50000, 
717.00000,0.208725
717.50000, 
718.00000,0.208267
718.50000, 
719.00000,0.207779
719.50000, 
720.00000,0.207352
720.50000, 
721.00000,0.206894
721.50000, 
722.00000,0.206528
722.50000, 
723.00000,0.206161
723.50000, 
724.00000,0.205704
724.50000, 
725.00000,0.205322
725.50000, 
726.00000,0.204941
726.50000, 
727.00000,0.204590
727.50000, 
728.00000,0.204269
728.50000, 
729.00000,0.203934
729.50000, 
730.00000,0.203613
730.50000, 
731.00000,0.203339
731.50000, 
732.00000,0.203049
732.50000, 
733.00000,0.202744
733.50000, 
734.00000,0.202454
734.50000, 
735.00000,0.202209
735.50000, 
736.00000,0.201950
736.50000, 
737.00000,0.201782
737.50000, 
738.00000,0.201508
738.50000, 
739.00000,0.201355
739.50000, 
740.00000,0.201096
740.50000, 
741.00000,0.200897
741.50000, 
742.00000,0.200592
742.50000, 
743.00000,0.200363
743.50000, 
744.00000,0.200211
744.50000, 
745.00000,0.199997
745.50000, 
746.00000,0.199738
746.50000, 
747.00000,0.199387
747.50000, 
748.00000,0.199081
748.50000, 
749.00000,0.198868
749.50000, 
750.00000,0.198654
750.50000, 
751.00000,0.198380
751.50000, 
752.00000,0.198166
752.50000, 
753.00000,0.198044
753.50000, 
754.00000,0.197845
754.50000, 
755.00000,0.197678
755.50000, 
756.00000,0.197495
756.50000, 
757.00000,0.197296
757.50000, 
758.00000,0.197128
758.50000, 
759.00000,0.196915
759.50000, 
760.00000,0.196793
760.50000, 
761.00000,0.196640
761.50000, 
762.00000,0.196442
762.50000, 
763.00000,0.196304
763.50000, 
764.00000,0.196121
764.50000, 
765.00000,0.195938
765.50000, 
766.00000,0.195770
766.50000, 
767.00000,0.195602
767.50000, 
768.00000,0.195450
768.50000, 
769.00000,0.195313
769.50000, 
770.00000,0.195145
770.50000, 
771.00000,0.194992
771.50000, 
772.00000,0.194809
772.50000, 
773.00000,0.194595
773.50000, 
774.00000,0.194458
774.50000, 
775.00000,0.194244
775.50000, 
776.00000,0.194138
776.50000, 
777.00000,0.194061
777.50000, 
778.00000,0.193909
778.50000, 
779.00000,0.193726
779.50000, 
780.00000,0.193558
780.50000, 
781.00000,0.193420
781.50000, 
782.00000,0.193375
782.50000, 
783.00000,0.193192
783.50000, 
784.00000,0.193039
784.50000, 
785.00000,0.192902
785.50000, 
786.00000,0.192749
786.50000, 
787.00000,0.192596
787.50000, 
788.00000,0.192444
788.50000, 
789.00000,0.192307
789.50000, 
790.00000,0.192261
790.50000, 
791.00000,0.192108
791.50000, 
792.00000,0.191986
792.50000, 
793.00000,0.191833
793.50000, 
794.00000,0.191635
794.50000, 
795.00000,0.191544
795.50000, 
796.00000,0.191437
796.50000, 
797.00000,0.191345
797.50000, 
798.00000,0.191177
798.50000, 
799.00000,0.191101
799.50000, 
800.00000,0.190948
800.50000, 
801.00000,0.190796
801.50000, 
802.00000,0.190674
802.50000, 
803.00000,0.190598
803.50000, 
804.00000,0.190475
804.50000, 
805.00000,0.190338
805.50000, 
806.00000,0.190247
806.50000, 
807.00000,0.190125
807.50000, 
808.00000,0.190033
808.50000, 
809.00000,0.189926
809.50000, 
810.00000,0.189774
810.50000, 
811.00000,0.189575
811.50000, 
812.00000,0.189499
812.50000, 
813.00000,0.189392
813.50000, 
814.00000,0.189285
814.50000, 
815.00000,0.189255
815.50000, 
816.00000,0.189072
816.50000, 
817.00000,0.188889
817.50000, 
818.00000,0.188721
818.50000, 
819.00000,0.188660
819.50000, 
820.00000,0.188538
820.50000, 
821.00000,0.188416
821.50000, 
822.00000,0.188370
822.50000, 
823.00000,0.188232
823.50000, 
824.00000,0.188080
824.50000, 
825.00000,0.188019
825.50000, 
826.00000,0.187943
826.50000, 
827.00000,0.187851
827.50000, 
828.00000,0.187729
828.50000, 
829.00000,0.187668
829.50000, 
830.00000,0.187515
830.50000, 
831.00000,0.187439
831.50000, 
832.00000,0.187302
832.50000, 
833.00000,0.187225
833.50000, 
834.00000,0.187103
834.50000, 
835.00000,0.187057
835.50000, 
836.00000,0.186996
836.50000, 
837.00000,0.186844
837.50000, 
838.00000,0.186798
838.50000, 
839.00000,0.186661
839.50000, 
840.00000,0.186554
840.50000, 
841.00000,0.186508
841.50000, 
842.00000,0.186493
842.50000, 
843.00000,0.186310
843.50000, 
844.00000,0.186234
844.50000, 
845.00000,0.186111
845.50000, 
846.00000,0.186050
846.50000, 
847.00000,0.186020
847.50000, 
848.00000,0.185944
848.50000, 
849.00000,0.185852
849.50000, 
850.00000,0.185715
850.50000, 
851.00000,0.185699
851.50000, 
852.00000,0.185608
852.50000, 
853.00000,0.185501
853.50000, 
854.00000,0.185425
854.50000, 
855.00000,0.185318
855.50000, 
856.00000,0.185303
856.50000, 
857.00000,0.185226
857.50000, 
858.00000,0.185028
858.50000, 
859.00000,0.184998
859.50000, 
860.00000,0.184921
860.50000, 
861.00000,0.184799
861.50000, 
862.00000,0.184708
862.50000, 
863.00000,0.184647
863.50000, 
864.00000,0.184555
864.50000, 
865.00000,0.184448
865.50000, 
866.00000,0.184326
866.50000, 
867.00000,0.184341
867.50000, 
868.00000,0.184296
868.50000, 
869.00000,0.184189
869.50000, 
870.00000,0.184143
870.50000, 
871.00000,0.184097
871.50000, 
872.00000,0.184021
872.50000, 
873.00000,0.183960
873.50000, 
874.00000,0.183975
874.50000, 
875.00000,0.183899
875.50000, 
876.00000,0.183868
876.50000, 
877.00000,0.183823
877.50000, 
878.00000,0.183777
878.50000, 
879.00000,0.183746
879.50000, 
880.00000,0.183640
880.50000, 
881.00000,0.183502
881.50000, 
882.00000,0.183472
882.50000, 
883.00000,0.183395
883.50000, 
884.00000,0.183334
884.50000, 
885.00000,0.183182
885.50000, 
886.00000,0.183167
886.50000, 
887.00000,0.183136
887.50000, 
888.00000,0.183060
888.50000, 
889.00000,0.183075
889.50000, 
890.00000,0.183075
890.50000, 
891.00000,0.183060
891.50000, 
892.00000,0.183121
892.50000, 
893.00000,0.183121
893.50000, 
894.00000,0.183121
894.50000, 
895.00000,0.183197
895.50000, 
896.00000,0.183228
896.50000, 
897.00000,0.183289
897.50000, 
898.00000,0.183395
898.50000, 
899.00000,0.183487
899.50000, 
900.00000,0.183640
900.50000, 
901.00000, 
901.50000, 
902.00000, 
902.50000, 
903.00000, 
903.50000, 
904.00000, 
904.50000, 
905.00000, 
905.50000, 
906.00000, 
906.50000, 
907.00000, 
907.50000, 
908.00000, 
908.50000, 
909.00000, 
909.50000, 
910.00000, 
910.50000, 
911.00000, 
911.50000, 
912.00000, 
912.50000, 
913.00000, 
913.50000, 
914.00000, 
914.50000, 
915.00000, 
915.50000, 
916.00000, 
916.50000, 
917.00000, 
917.50000, 
918.00000, 
918.50000, 
919.00000, 
919.50000, 
920.00000, 
920.50000, 
921.00000, 
921.50000, 
922.00000, 
922.50000, 
923.00000, 
923.50000, 
924.00000, 
924.50000, 
925.00000, 
925.50000, 
926.00000, 
926.50000, 
927.00000, 
927.50000, 
928.00000, 
928.50000, 
929.00000, 
929.50000, 
930.00000, 
930.50000, 
931.00000, 
931.50000, 
932.00000, 
932.50000, 
933.00000, 
933.50000, 
934.00000, 
934.50000, 
935.00000, 
935.50000, 
936.00000, 
936.50000, 
937.00000, 
937.50000, 
938.00000, 
938.50000, 
939.00000, 
939.50000, 
940.00000, 
940.50000, 
941.00000, 
941.50000, 
942.00000, 
942.50000, 
943.00000, 
943.50000, 
944.00000, 
944.50000, 
945.00000, 
945.50000, 
946.00000, 
946.50000, 
947.00000, 
947.50000, 
948.00000, 
948.50000, 
949.00000, 
949.50000, 
950.00000, 
950.50000, 
951.00000, 
951.50000, 
952.00000, 
952.50000, 
953.00000, 
953.50000, 
954.00000, 
954.50000, 
955.00000, 
955.50000, 
956.00000, 
956.50000, 
957.00000, 
957.50000, 
958.00000, 
958.50000, 
959.00000, 
959.50000, 
960.00000, 
960.50000, 
961.00000, 
961.50000, 
962.00000, 
962.50000, 
963.00000, 
963.50000, 
964.00000, 
964.50000, 
965.00000, 
965.50000, 
966.00000, 
966.50000, 
967.00000, 
967.50000, 
968.00000, 
968.50000, 
969.00000, 
969.50000, 
970.00000, 
970.50000, 
971.00000, 
971.50000, 
972.00000, 
972.50000, 
973.00000, 
973.50000, 
974.00000, 
974.50000, 
975.00000, 
975.50000, 
976.00000, 
976.50000, 
977.00000, 
977.50000, 
978.00000, 
978.50000, 
979.00000, 
979.50000, 
980.00000, 
980.50000, 
981.00000, 
981.50000, 
982.00000, 
982.50000, 
983.00000, 
983.50000, 
984.00000, 
984.50000, 
985.00000, 
985.50000, 
986.00000, 
986.50000, 
987.00000, 
987.50000, 
988.00000, 
988.50000, 
989.00000, 
989.50000, 
990.00000, 
990.50000, 
991.00000, 
991.50000, 
992.00000, 
992.50000, 
993.00000, 
993.50000, 
994.00000, 
994.50000, 
995.00000, 
995.50000, 
996.00000, 
996.50000, 
997.00000, 
997.50000, 
998.00000, 
998.50000, 
999.00000, 
999.50000, 
1000.00000, 
1000.50000, 
1001.00000, 
1001.50000, 
1002.00000, 
1002.50000, 
1003.00000, 
1003.50000, 
1004.00000, 
1004.50000, 
1005.00000, 
1005.50000, 
1006.00000, 
1006.50000, 
1007.00000, 
1007.50000, 
1008.00000, 
1008.50000, 
1009.00000, 
1009.50000, 
1010.00000, 
1010.50000, 
1011.00000, 
1011.50000, 
1012.00000, 
1012.50000, 
1013.00000, 
1013.50000, 
1014.00000, 
1014.50000, 
1015.00000, 
1015.50000, 
1016.00000, 
1016.50000, 
1017.00000, 
1017.50000, 
1018.00000, 
1018.50000, 
1019.00000, 
1019.50000, 
1020.00000, 
1020.50000, 
1021.00000, 
1021.50000, 
1022.00000, 
1022.50000, 
1023.00000, 
1023.50000, 
1024.00000, 
1024.50000, 
1025.00000, 
1025.50000, 
1026.00000, 
1026.50000, 
1027.00000, 
1027.50000, 
1028.00000, 
1028.50000, 
1029.00000, 
1029.50000, 
1030.00000, 
1030.50000, 
1031.00000, 
1031.50000, 
1032.00000, 
1032.50000, 
1033.00000, 
1033.50000, 
1034.00000, 
1034.50000, 
1035.00000, 
1035.50000, 
1036.00000, 
1036.50000, 
1037.00000, 
1037.50000, 
1038.00000, 
1038.50000, 
1039.00000, 
1039.50000, 
1040.00000, 
1040.50000, 
1041.00000, 
1041.50000, 
1042.00000, 
1042.50000, 
1043.00000, 
1043.50000, 
1044.00000, 
1044.50000, 
1045.00000, 
1045.50000, 
1046.00000, 
1046.50000, 
1047.00000, 
1047.50000, 
1048.00000, 
1048.50000, 
1049.00000, 
1049.50000, 
1050.00000, 
1050.50000, 
1051.00000, 
1051.50000, 
1052.00000, 
1052.50000, 
1053.00000, 
1053.50000, 
1054.00000, 
1054.50000, 
1055.00000, 
1055.50000, 
1056.00000, 
1056.50000, 
1057.00000, 
1057.50000, 
1058.00000, 
1058.50000, 
1059.00000, 
1059.50000, 
1060.00000, 
1060.50000, 
1061.00000, 
1061.50000, 
1062.00000, 
1062.50000, 
1063.00000, 
1063.50000, 
1064.00000, 
1064.50000, 
1065.00000, 
1065.50000, 
1066.00000, 
1066.50000, 
1067.00000, 
1067.50000, 
1068.00000, 
1068.50000, 
1069.00000, 
1069.50000, 
1070.00000, 
1070.50000, 
1071.00000, 
1071.50000, 
1072.00000, 
1072.50000, 
1073.00000, 
1073.50000, 
1074.00000, 
1074.50000, 
1075.00000, 
1075.50000, 
1076.00000, 
1076.50000, 
1077.00000, 
1077.50000, 
1078.00000, 
1078.50000, 
1079.00000, 
1079.50000, 
1080.00000, 
1080.50000, 
1081.00000, 
1081.50000, 
1082.00000, 
1082.50000, 
1083.00000, 
1083.50000, 
1084.00000, 
1084.50000, 
1085.00000, 
1085.50000, 
1086.00000, 
1086.50000, 
1087.00000, 
1087.50000, 
1088.00000, 
1088.50000, 
1089.00000, 
1089.50000, 
1090.00000, 
1090.50000, 
1091.00000, 
1091.50000, 
1092.00000, 
1092.50000, 
1093.00000, 
1093.50000, 
1094.00000, 
1094.50000, 
1095.00000, 
1095.50000, 
1096.00000, 
1096.50000, 
1097.00000, 
1097.50000, 
1098.00000, 
1098.50000, 
1099.00000, 
1099.50000, 
1100.00000, 
