"40%H2 - RawData"
"Wavelength nm.","Abs."
300.00000,3.965805
300.50000, 
301.00000,3.977661
301.50000, 
302.00000,3.968201
302.50000, 
303.00000,3.981125
303.50000, 
304.00000,3.956711
304.50000, 
305.00000,3.932953
305.50000, 
306.00000,3.929718
306.50000, 
307.00000,3.881485
307.50000, 
308.00000,3.991959
308.50000, 
309.00000,3.960617
309.50000, 
310.00000,3.941330
310.50000, 
311.00000,3.872894
311.50000, 
312.00000,3.978531
312.50000, 
313.00000,3.941864
313.50000, 
314.00000,3.962662
314.50000, 
315.00000,3.951233
315.50000, 
316.00000,3.909653
316.50000, 
317.00000,3.822281
317.50000, 
318.00000,3.859283
318.50000, 
319.00000,3.982986
319.50000, 
320.00000,3.964417
320.50000, 
321.00000,3.937347
321.50000, 
322.00000,3.986237
322.50000, 
323.00000,3.962875
323.50000, 
324.00000,3.952332
324.50000, 
325.00000,3.982986
325.50000, 
326.00000,3.929382
326.50000, 
327.00000,3.969162
327.50000, 
328.00000,4.000000
328.50000, 
329.00000,3.892822
329.50000, 
330.00000,3.960632
330.50000, 
331.00000,3.955231
331.50000, 
332.00000,3.911194
332.50000, 
333.00000,3.861313
333.50000, 
334.00000,3.929504
334.50000, 
335.00000,3.880096
335.50000, 
336.00000,3.906967
336.50000, 
337.00000,3.886093
337.50000, 
338.00000,3.872757
338.50000, 
339.00000,3.925720
339.50000, 
340.00000,3.803101
340.50000, 
341.00000,3.794815
341.50000, 
342.00000,3.672058
342.50000, 
343.00000,3.971329
343.50000, 
344.00000,3.985947
344.50000, 
345.00000,3.992371
345.50000, 
346.00000,3.975220
346.50000, 
347.00000,3.987289
347.50000, 
348.00000,3.865646
348.50000, 
349.00000,3.833694
349.50000, 
350.00000,3.957825
350.50000, 
351.00000,3.988586
351.50000, 
352.00000,3.898026
352.50000, 
353.00000,3.926987
353.50000, 
354.00000,3.879379
354.50000, 
355.00000,3.893173
355.50000, 
356.00000,3.941818
356.50000, 
357.00000,3.981262
357.50000, 
358.00000,3.870453
358.50000, 
359.00000,3.924240
359.50000, 
360.00000,3.957901
360.50000, 
361.00000,3.950699
361.50000, 
362.00000,3.949402
362.50000, 
363.00000,4.000000
363.50000, 
364.00000,3.876923
364.50000, 
365.00000,3.936661
365.50000, 
366.00000,3.958145
366.50000, 
367.00000,3.917526
367.50000, 
368.00000,3.884750
368.50000, 
369.00000,3.966599
369.50000, 
370.00000,3.990204
370.50000, 
371.00000,3.931763
371.50000, 
372.00000,3.912262
372.50000, 
373.00000,3.902374
373.50000, 
374.00000,3.849670
374.50000, 
375.00000,3.722641
375.50000, 
376.00000,3.872498
376.50000, 
377.00000,3.785339
377.50000, 
378.00000,3.939987
378.50000, 
379.00000,3.881592
379.50000, 
380.00000,3.930222
380.50000, 
381.00000,3.934128
381.50000, 
382.00000,3.431427
382.50000, 
383.00000,3.176163
383.50000, 
384.00000,2.947861
384.50000, 
385.00000,2.726929
385.50000, 
386.00000,2.508698
386.50000, 
387.00000,2.331726
387.50000, 
388.00000,2.156876
388.50000, 
389.00000,2.003967
389.50000, 
390.00000,1.862366
390.50000, 
391.00000,1.736267
391.50000, 
392.00000,1.628418
392.50000, 
393.00000,1.529938
393.50000, 
394.00000,1.436630
394.50000, 
395.00000,1.356247
395.50000, 
396.00000,1.284790
396.50000, 
397.00000,1.219803
397.50000, 
398.00000,1.164063
398.50000, 
399.00000,1.114716
399.50000, 
400.00000,1.072327
400.50000, 
401.00000,1.035843
401.50000, 
402.00000,1.005386
402.50000, 
403.00000,0.980576
403.50000, 
404.00000,0.958679
404.50000, 
405.00000,0.941345
405.50000, 
406.00000,0.926682
406.50000, 
407.00000,0.914352
407.50000, 
408.00000,0.903778
408.50000, 
409.00000,0.895279
409.50000, 
410.00000,0.887527
410.50000, 
411.00000,0.881470
411.50000, 
412.00000,0.876480
412.50000, 
413.00000,0.872131
413.50000, 
414.00000,0.867874
414.50000, 
415.00000,0.864349
415.50000, 
416.00000,0.861511
416.50000, 
417.00000,0.858444
417.50000, 
418.00000,0.855988
418.50000, 
419.00000,0.853470
419.50000, 
420.00000,0.851669
420.50000, 
421.00000,0.849350
421.50000, 
422.00000,0.847427
422.50000, 
423.00000,0.845581
423.50000, 
424.00000,0.844040
424.50000, 
425.00000,0.842529
425.50000, 
426.00000,0.841187
426.50000, 
427.00000,0.839767
427.50000, 
428.00000,0.838684
428.50000, 
429.00000,0.837585
429.50000, 
430.00000,0.836685
430.50000, 
431.00000,0.835754
431.50000, 
432.00000,0.834778
432.50000, 
433.00000,0.834076
433.50000, 
434.00000,0.833115
434.50000, 
435.00000,0.832291
435.50000, 
436.00000,0.831589
436.50000, 
437.00000,0.830566
437.50000, 
438.00000,0.829620
438.50000, 
439.00000,0.828659
439.50000, 
440.00000,0.827744
440.50000, 
441.00000,0.826752
441.50000, 
442.00000,0.825867
442.50000, 
443.00000,0.825211
443.50000, 
444.00000,0.824356
444.50000, 
445.00000,0.823486
445.50000, 
446.00000,0.822754
446.50000, 
447.00000,0.822083
447.50000, 
448.00000,0.821289
448.50000, 
449.00000,0.820526
449.50000, 
450.00000,0.819855
450.50000, 
451.00000,0.819122
451.50000, 
452.00000,0.818588
452.50000, 
453.00000,0.817932
453.50000, 
454.00000,0.817474
454.50000, 
455.00000,0.816833
455.50000, 
456.00000,0.816162
456.50000, 
457.00000,0.815704
457.50000, 
458.00000,0.815140
458.50000, 
459.00000,0.814743
459.50000, 
460.00000,0.814270
460.50000, 
461.00000,0.813950
461.50000, 
462.00000,0.813599
462.50000, 
463.00000,0.813309
463.50000, 
464.00000,0.813187
464.50000, 
465.00000,0.813004
465.50000, 
466.00000,0.812836
466.50000, 
467.00000,0.813049
467.50000, 
468.00000,0.813065
468.50000, 
469.00000,0.813370
469.50000, 
470.00000,0.814011
470.50000, 
471.00000,0.814880
471.50000, 
472.00000,0.816879
472.50000, 
473.00000,0.820251
473.50000, 
474.00000,0.821716
474.50000, 
475.00000,0.819931
475.50000, 
476.00000,0.817459
476.50000, 
477.00000,0.814301
477.50000, 
478.00000,0.810608
478.50000, 
479.00000,0.806091
479.50000, 
480.00000,0.800888
480.50000, 
481.00000,0.794861
481.50000, 
482.00000,0.788223
482.50000, 
483.00000,0.780670
483.50000, 
484.00000,0.772247
484.50000, 
485.00000,0.763412
485.50000, 
486.00000,0.754044
486.50000, 
487.00000,0.744751
487.50000, 
488.00000,0.735977
488.50000, 
489.00000,0.728134
489.50000, 
490.00000,0.721207
490.50000, 
491.00000,0.715561
491.50000, 
492.00000,0.711258
492.50000, 
493.00000,0.708160
493.50000, 
494.00000,0.706146
494.50000, 
495.00000,0.705353
495.50000, 
496.00000,0.705399
496.50000, 
497.00000,0.706177
497.50000, 
498.00000,0.707397
498.50000, 
499.00000,0.709152
499.50000, 
500.00000,0.710999
500.50000, 
501.00000,0.713089
501.50000, 
502.00000,0.715378
502.50000, 
503.00000,0.717484
503.50000, 
504.00000,0.719635
504.50000, 
505.00000,0.721741
505.50000, 
506.00000,0.723709
506.50000, 
507.00000,0.725586
507.50000, 
508.00000,0.727371
508.50000, 
509.00000,0.728836
509.50000, 
510.00000,0.730499
510.50000, 
511.00000,0.731812
511.50000, 
512.00000,0.733032
512.50000, 
513.00000,0.734192
513.50000, 
514.00000,0.735199
514.50000, 
515.00000,0.736084
515.50000, 
516.00000,0.736938
516.50000, 
517.00000,0.737701
517.50000, 
518.00000,0.738312
518.50000, 
519.00000,0.738815
519.50000, 
520.00000,0.739166
520.50000, 
521.00000,0.739746
521.50000, 
522.00000,0.740067
522.50000, 
523.00000,0.740219
523.50000, 
524.00000,0.740448
524.50000, 
525.00000,0.740662
525.50000, 
526.00000,0.740967
526.50000, 
527.00000,0.741058
527.50000, 
528.00000,0.741226
528.50000, 
529.00000,0.741196
529.50000, 
530.00000,0.741211
530.50000, 
531.00000,0.741180
531.50000, 
532.00000,0.741226
532.50000, 
533.00000,0.741150
533.50000, 
534.00000,0.740982
534.50000, 
535.00000,0.740906
535.50000, 
536.00000,0.740707
536.50000, 
537.00000,0.740143
537.50000, 
538.00000,0.739899
538.50000, 
539.00000,0.739822
539.50000, 
540.00000,0.739655
540.50000, 
541.00000,0.739517
541.50000, 
542.00000,0.739288
542.50000, 
543.00000,0.738983
543.50000, 
544.00000,0.738754
544.50000, 
545.00000,0.738495
545.50000, 
546.00000,0.738205
546.50000, 
547.00000,0.737747
547.50000, 
548.00000,0.737335
548.50000, 
549.00000,0.736893
549.50000, 
550.00000,0.736267
550.50000, 
551.00000,0.735718
551.50000, 
552.00000,0.735001
552.50000, 
553.00000,0.734253
553.50000, 
554.00000,0.733566
554.50000, 
555.00000,0.732666
555.50000, 
556.00000,0.731689
556.50000, 
557.00000,0.730698
557.50000, 
558.00000,0.729645
558.50000, 
559.00000,0.728516
559.50000, 
560.00000,0.727402
560.50000, 
561.00000,0.726181
561.50000, 
562.00000,0.724960
562.50000, 
563.00000,0.723679
563.50000, 
564.00000,0.722260
564.50000, 
565.00000,0.720779
565.50000, 
566.00000,0.719360
566.50000, 
567.00000,0.717911
567.50000, 
568.00000,0.716354
568.50000, 
569.00000,0.714844
569.50000, 
570.00000,0.713379
570.50000, 
571.00000,0.711792
571.50000, 
572.00000,0.710159
572.50000, 
573.00000,0.708633
573.50000, 
574.00000,0.707092
574.50000, 
575.00000,0.705460
575.50000, 
576.00000,0.703918
576.50000, 
577.00000,0.702271
577.50000, 
578.00000,0.700806
578.50000, 
579.00000,0.699341
579.50000, 
580.00000,0.697906
580.50000, 
581.00000,0.696503
581.50000, 
582.00000,0.695129
582.50000, 
583.00000,0.693802
583.50000, 
584.00000,0.692474
584.50000, 
585.00000,0.691345
585.50000, 
586.00000,0.690262
586.50000, 
587.00000,0.689072
587.50000, 
588.00000,0.687988
588.50000, 
589.00000,0.686966
589.50000, 
590.00000,0.686081
590.50000, 
591.00000,0.685089
591.50000, 
592.00000,0.684113
592.50000, 
593.00000,0.683060
593.50000, 
594.00000,0.681946
594.50000, 
595.00000,0.680893
595.50000, 
596.00000,0.679810
596.50000, 
597.00000,0.678741
597.50000, 
598.00000,0.677612
598.50000, 
599.00000,0.676392
599.50000, 
600.00000,0.675034
600.50000, 
601.00000,0.673584
601.50000, 
602.00000,0.672058
602.50000, 
603.00000,0.670349
603.50000, 
604.00000,0.668549
604.50000, 
605.00000,0.666748
605.50000, 
606.00000,0.664780
606.50000, 
607.00000,0.662720
607.50000, 
608.00000,0.660629
608.50000, 
609.00000,0.658249
609.50000, 
610.00000,0.655899
610.50000, 
611.00000,0.653610
611.50000, 
612.00000,0.650955
612.50000, 
613.00000,0.648300
613.50000, 
614.00000,0.645706
614.50000, 
615.00000,0.642944
615.50000, 
616.00000,0.640137
616.50000, 
617.00000,0.637283
617.50000, 
618.00000,0.634262
618.50000, 
619.00000,0.631287
619.50000, 
620.00000,0.628403
620.50000, 
621.00000,0.625397
621.50000, 
622.00000,0.622345
622.50000, 
623.00000,0.619293
623.50000, 
624.00000,0.616135
624.50000, 
625.00000,0.612869
625.50000, 
626.00000,0.609894
626.50000, 
627.00000,0.606888
627.50000, 
628.00000,0.604095
628.50000, 
629.00000,0.601425
629.50000, 
630.00000,0.598999
630.50000, 
631.00000,0.597015
631.50000, 
632.00000,0.595642
632.50000, 
633.00000,0.595551
633.50000, 
634.00000,0.597748
634.50000, 
635.00000,0.595078
635.50000, 
636.00000,0.584900
636.50000, 
637.00000,0.572464
637.50000, 
638.00000,0.559204
638.50000, 
639.00000,0.544220
639.50000, 
640.00000,0.529282
640.50000, 
641.00000,0.514572
641.50000, 
642.00000,0.500610
642.50000, 
643.00000,0.488373
643.50000, 
644.00000,0.478226
644.50000, 
645.00000,0.470642
645.50000, 
646.00000,0.465118
646.50000, 
647.00000,0.461853
647.50000, 
648.00000,0.460205
648.50000, 
649.00000,0.460281
649.50000, 
650.00000,0.461136
650.50000, 
651.00000,0.462784
651.50000, 
652.00000,0.464691
652.50000, 
653.00000,0.466827
653.50000, 
654.00000,0.469101
654.50000, 
655.00000,0.471237
655.50000, 
656.00000,0.473251
656.50000, 
657.00000,0.475021
657.50000, 
658.00000,0.476746
658.50000, 
659.00000,0.478180
659.50000, 
660.00000,0.479752
660.50000, 
661.00000,0.480820
661.50000, 
662.00000,0.482010
662.50000, 
663.00000,0.482864
663.50000, 
664.00000,0.483749
664.50000, 
665.00000,0.484314
665.50000, 
666.00000,0.485016
666.50000, 
667.00000,0.485413
667.50000, 
668.00000,0.485886
668.50000, 
669.00000,0.486145
669.50000, 
670.00000,0.486481
670.50000, 
671.00000,0.486603
671.50000, 
672.00000,0.486771
672.50000, 
673.00000,0.486816
673.50000, 
674.00000,0.486771
674.50000, 
675.00000,0.486633
675.50000, 
676.00000,0.486465
676.50000, 
677.00000,0.486404
677.50000, 
678.00000,0.486206
678.50000, 
679.00000,0.485977
679.50000, 
680.00000,0.485580
680.50000, 
681.00000,0.485306
681.50000, 
682.00000,0.484879
682.50000, 
683.00000,0.484589
683.50000, 
684.00000,0.484055
684.50000, 
685.00000,0.483719
685.50000, 
686.00000,0.483231
686.50000, 
687.00000,0.482819
687.50000, 
688.00000,0.482361
688.50000, 
689.00000,0.481812
689.50000, 
690.00000,0.481216
690.50000, 
691.00000,0.480606
691.50000, 
692.00000,0.480240
692.50000, 
693.00000,0.479614
693.50000, 
694.00000,0.479218
694.50000, 
695.00000,0.478439
695.50000, 
696.00000,0.478058
696.50000, 
697.00000,0.477280
697.50000, 
698.00000,0.476852
698.50000, 
699.00000,0.476013
699.50000, 
700.00000,0.475494
700.50000, 
701.00000,0.474487
701.50000, 
702.00000,0.474014
702.50000, 
703.00000,0.473175
703.50000, 
704.00000,0.472809
704.50000, 
705.00000,0.471863
705.50000, 
706.00000,0.471207
706.50000, 
707.00000,0.470184
707.50000, 
708.00000,0.469498
708.50000, 
709.00000,0.468658
709.50000, 
710.00000,0.467697
710.50000, 
711.00000,0.466965
711.50000, 
712.00000,0.465714
712.50000, 
713.00000,0.465073
713.50000, 
714.00000,0.463821
714.50000, 
715.00000,0.462952
715.50000, 
716.00000,0.461670
716.50000, 
717.00000,0.460709
717.50000, 
718.00000,0.459518
718.50000, 
719.00000,0.458374
719.50000, 
720.00000,0.457413
720.50000, 
721.00000,0.456024
721.50000, 
722.00000,0.455154
722.50000, 
723.00000,0.453796
723.50000, 
724.00000,0.452911
724.50000, 
725.00000,0.451553
725.50000, 
726.00000,0.450729
726.50000, 
727.00000,0.449570
727.50000, 
728.00000,0.448456
728.50000, 
729.00000,0.447540
729.50000, 
730.00000,0.446259
730.50000, 
731.00000,0.445526
731.50000, 
732.00000,0.444244
732.50000, 
733.00000,0.443497
733.50000, 
734.00000,0.442429
734.50000, 
735.00000,0.441391
735.50000, 
736.00000,0.440720
736.50000, 
737.00000,0.439575
737.50000, 
738.00000,0.438873
738.50000, 
739.00000,0.437775
739.50000, 
740.00000,0.436798
740.50000, 
741.00000,0.435989
741.50000, 
742.00000,0.434814
742.50000, 
743.00000,0.434189
743.50000, 
744.00000,0.432983
744.50000, 
745.00000,0.432266
745.50000, 
746.00000,0.431137
746.50000, 
747.00000,0.430008
747.50000, 
748.00000,0.429108
748.50000, 
749.00000,0.427963
749.50000, 
750.00000,0.427307
750.50000, 
751.00000,0.426071
751.50000, 
752.00000,0.425278
752.50000, 
753.00000,0.424561
753.50000, 
754.00000,0.423462
754.50000, 
755.00000,0.422943
755.50000, 
756.00000,0.421829
756.50000, 
757.00000,0.420959
757.50000, 
758.00000,0.420242
758.50000, 
759.00000,0.419098
759.50000, 
760.00000,0.418732
760.50000, 
761.00000,0.417679
761.50000, 
762.00000,0.416824
762.50000, 
763.00000,0.416245
763.50000, 
764.00000,0.415024
764.50000, 
765.00000,0.414459
765.50000, 
766.00000,0.413376
766.50000, 
767.00000,0.412643
767.50000, 
768.00000,0.412033
768.50000, 
769.00000,0.410980
769.50000, 
770.00000,0.410370
770.50000, 
771.00000,0.409363
771.50000, 
772.00000,0.408569
772.50000, 
773.00000,0.407944
773.50000, 
774.00000,0.406921
774.50000, 
775.00000,0.406326
775.50000, 
776.00000,0.405548
776.50000, 
777.00000,0.404541
777.50000, 
778.00000,0.404129
778.50000, 
779.00000,0.403046
779.50000, 
780.00000,0.402435
780.50000, 
781.00000,0.401825
781.50000, 
782.00000,0.400909
782.50000, 
783.00000,0.400299
783.50000, 
784.00000,0.399582
784.50000, 
785.00000,0.398575
785.50000, 
786.00000,0.398178
786.50000, 
787.00000,0.397125
787.50000, 
788.00000,0.396393
788.50000, 
789.00000,0.395844
789.50000, 
790.00000,0.394791
790.50000, 
791.00000,0.394196
791.50000, 
792.00000,0.393417
792.50000, 
793.00000,0.392456
793.50000, 
794.00000,0.391907
794.50000, 
795.00000,0.391006
795.50000, 
796.00000,0.390152
796.50000, 
797.00000,0.389725
797.50000, 
798.00000,0.388489
798.50000, 
799.00000,0.387939
799.50000, 
800.00000,0.387161
800.50000, 
801.00000,0.386169
801.50000, 
802.00000,0.385452
802.50000, 
803.00000,0.384781
803.50000, 
804.00000,0.383545
804.50000, 
805.00000,0.383072
805.50000, 
806.00000,0.382095
806.50000, 
807.00000,0.381073
807.50000, 
808.00000,0.380432
808.50000, 
809.00000,0.379440
809.50000, 
810.00000,0.378189
810.50000, 
811.00000,0.377502
811.50000, 
812.00000,0.376221
812.50000, 
813.00000,0.375305
813.50000, 
814.00000,0.374451
814.50000, 
815.00000,0.373245
815.50000, 
816.00000,0.372070
816.50000, 
817.00000,0.371094
817.50000, 
818.00000,0.369568
818.50000, 
819.00000,0.368683
819.50000, 
820.00000,0.367554
820.50000, 
821.00000,0.366089
821.50000, 
822.00000,0.365143
822.50000, 
823.00000,0.363937
823.50000, 
824.00000,0.362564
824.50000, 
825.00000,0.361404
825.50000, 
826.00000,0.360352
826.50000, 
827.00000,0.358627
827.50000, 
828.00000,0.357498
828.50000, 
829.00000,0.356125
829.50000, 
830.00000,0.354736
830.50000, 
831.00000,0.353287
831.50000, 
832.00000,0.352036
832.50000, 
833.00000,0.350250
833.50000, 
834.00000,0.348907
834.50000, 
835.00000,0.347488
835.50000, 
836.00000,0.345703
836.50000, 
837.00000,0.344254
837.50000, 
838.00000,0.342712
838.50000, 
839.00000,0.340988
839.50000, 
840.00000,0.339417
840.50000, 
841.00000,0.338058
841.50000, 
842.00000,0.336075
842.50000, 
843.00000,0.334625
843.50000, 
844.00000,0.332977
844.50000, 
845.00000,0.331299
845.50000, 
846.00000,0.329620
846.50000, 
847.00000,0.328201
847.50000, 
848.00000,0.326477
848.50000, 
849.00000,0.324677
849.50000, 
850.00000,0.323273
850.50000, 
851.00000,0.321381
851.50000, 
852.00000,0.319855
852.50000, 
853.00000,0.318207
853.50000, 
854.00000,0.316528
854.50000, 
855.00000,0.314606
855.50000, 
856.00000,0.313065
856.50000, 
857.00000,0.311417
857.50000, 
858.00000,0.309357
858.50000, 
859.00000,0.307877
859.50000, 
860.00000,0.306030
860.50000, 
861.00000,0.304459
861.50000, 
862.00000,0.302643
862.50000, 
863.00000,0.301132
863.50000, 
864.00000,0.299347
864.50000, 
865.00000,0.297714
865.50000, 
866.00000,0.296204
866.50000, 
867.00000,0.294449
867.50000, 
868.00000,0.293121
868.50000, 
869.00000,0.291519
869.50000, 
870.00000,0.290070
870.50000, 
871.00000,0.288467
871.50000, 
872.00000,0.287003
872.50000, 
873.00000,0.285660
873.50000, 
874.00000,0.284012
874.50000, 
875.00000,0.282761
875.50000, 
876.00000,0.281219
876.50000, 
877.00000,0.279831
877.50000, 
878.00000,0.278397
878.50000, 
879.00000,0.276962
879.50000, 
880.00000,0.275650
880.50000, 
881.00000,0.274109
881.50000, 
882.00000,0.272842
882.50000, 
883.00000,0.271378
883.50000, 
884.00000,0.270142
884.50000, 
885.00000,0.268875
885.50000, 
886.00000,0.267532
886.50000, 
887.00000,0.266556
887.50000, 
888.00000,0.265198
888.50000, 
889.00000,0.264099
889.50000, 
890.00000,0.263031
890.50000, 
891.00000,0.261856
891.50000, 
892.00000,0.261047
892.50000, 
893.00000,0.259888
893.50000, 
894.00000,0.258911
894.50000, 
895.00000,0.258133
895.50000, 
896.00000,0.257095
896.50000, 
897.00000,0.256256
897.50000, 
898.00000,0.255295
898.50000, 
899.00000,0.254562
899.50000, 
900.00000,0.254044
900.50000, 
901.00000, 
901.50000, 
902.00000, 
902.50000, 
903.00000, 
903.50000, 
904.00000, 
904.50000, 
905.00000, 
905.50000, 
906.00000, 
906.50000, 
907.00000, 
907.50000, 
908.00000, 
908.50000, 
909.00000, 
909.50000, 
910.00000, 
910.50000, 
911.00000, 
911.50000, 
912.00000, 
912.50000, 
913.00000, 
913.50000, 
914.00000, 
914.50000, 
915.00000, 
915.50000, 
916.00000, 
916.50000, 
917.00000, 
917.50000, 
918.00000, 
918.50000, 
919.00000, 
919.50000, 
920.00000, 
920.50000, 
921.00000, 
921.50000, 
922.00000, 
922.50000, 
923.00000, 
923.50000, 
924.00000, 
924.50000, 
925.00000, 
925.50000, 
926.00000, 
926.50000, 
927.00000, 
927.50000, 
928.00000, 
928.50000, 
929.00000, 
929.50000, 
930.00000, 
930.50000, 
931.00000, 
931.50000, 
932.00000, 
932.50000, 
933.00000, 
933.50000, 
934.00000, 
934.50000, 
935.00000, 
935.50000, 
936.00000, 
936.50000, 
937.00000, 
937.50000, 
938.00000, 
938.50000, 
939.00000, 
939.50000, 
940.00000, 
940.50000, 
941.00000, 
941.50000, 
942.00000, 
942.50000, 
943.00000, 
943.50000, 
944.00000, 
944.50000, 
945.00000, 
945.50000, 
946.00000, 
946.50000, 
947.00000, 
947.50000, 
948.00000, 
948.50000, 
949.00000, 
949.50000, 
950.00000, 
950.50000, 
951.00000, 
951.50000, 
952.00000, 
952.50000, 
953.00000, 
953.50000, 
954.00000, 
954.50000, 
955.00000, 
955.50000, 
956.00000, 
956.50000, 
957.00000, 
957.50000, 
958.00000, 
958.50000, 
959.00000, 
959.50000, 
960.00000, 
960.50000, 
961.00000, 
961.50000, 
962.00000, 
962.50000, 
963.00000, 
963.50000, 
964.00000, 
964.50000, 
965.00000, 
965.50000, 
966.00000, 
966.50000, 
967.00000, 
967.50000, 
968.00000, 
968.50000, 
969.00000, 
969.50000, 
970.00000, 
970.50000, 
971.00000, 
971.50000, 
972.00000, 
972.50000, 
973.00000, 
973.50000, 
974.00000, 
974.50000, 
975.00000, 
975.50000, 
976.00000, 
976.50000, 
977.00000, 
977.50000, 
978.00000, 
978.50000, 
979.00000, 
979.50000, 
980.00000, 
980.50000, 
981.00000, 
981.50000, 
982.00000, 
982.50000, 
983.00000, 
983.50000, 
984.00000, 
984.50000, 
985.00000, 
985.50000, 
986.00000, 
986.50000, 
987.00000, 
987.50000, 
988.00000, 
988.50000, 
989.00000, 
989.50000, 
990.00000, 
990.50000, 
991.00000, 
991.50000, 
992.00000, 
992.50000, 
993.00000, 
993.50000, 
994.00000, 
994.50000, 
995.00000, 
995.50000, 
996.00000, 
996.50000, 
997.00000, 
997.50000, 
998.00000, 
998.50000, 
999.00000, 
999.50000, 
1000.00000, 
1000.50000, 
1001.00000, 
1001.50000, 
1002.00000, 
1002.50000, 
1003.00000, 
1003.50000, 
1004.00000, 
1004.50000, 
1005.00000, 
1005.50000, 
1006.00000, 
1006.50000, 
1007.00000, 
1007.50000, 
1008.00000, 
1008.50000, 
1009.00000, 
1009.50000, 
1010.00000, 
1010.50000, 
1011.00000, 
1011.50000, 
1012.00000, 
1012.50000, 
1013.00000, 
1013.50000, 
1014.00000, 
1014.50000, 
1015.00000, 
1015.50000, 
1016.00000, 
1016.50000, 
1017.00000, 
1017.50000, 
1018.00000, 
1018.50000, 
1019.00000, 
1019.50000, 
1020.00000, 
1020.50000, 
1021.00000, 
1021.50000, 
1022.00000, 
1022.50000, 
1023.00000, 
1023.50000, 
1024.00000, 
1024.50000, 
1025.00000, 
1025.50000, 
1026.00000, 
1026.50000, 
1027.00000, 
1027.50000, 
1028.00000, 
1028.50000, 
1029.00000, 
1029.50000, 
1030.00000, 
1030.50000, 
1031.00000, 
1031.50000, 
1032.00000, 
1032.50000, 
1033.00000, 
1033.50000, 
1034.00000, 
1034.50000, 
1035.00000, 
1035.50000, 
1036.00000, 
1036.50000, 
1037.00000, 
1037.50000, 
1038.00000, 
1038.50000, 
1039.00000, 
1039.50000, 
1040.00000, 
1040.50000, 
1041.00000, 
1041.50000, 
1042.00000, 
1042.50000, 
1043.00000, 
1043.50000, 
1044.00000, 
1044.50000, 
1045.00000, 
1045.50000, 
1046.00000, 
1046.50000, 
1047.00000, 
1047.50000, 
1048.00000, 
1048.50000, 
1049.00000, 
1049.50000, 
1050.00000, 
1050.50000, 
1051.00000, 
1051.50000, 
1052.00000, 
1052.50000, 
1053.00000, 
1053.50000, 
1054.00000, 
1054.50000, 
1055.00000, 
1055.50000, 
1056.00000, 
1056.50000, 
1057.00000, 
1057.50000, 
1058.00000, 
1058.50000, 
1059.00000, 
1059.50000, 
1060.00000, 
1060.50000, 
1061.00000, 
1061.50000, 
1062.00000, 
1062.50000, 
1063.00000, 
1063.50000, 
1064.00000, 
1064.50000, 
1065.00000, 
1065.50000, 
1066.00000, 
1066.50000, 
1067.00000, 
1067.50000, 
1068.00000, 
1068.50000, 
1069.00000, 
1069.50000, 
1070.00000, 
1070.50000, 
1071.00000, 
1071.50000, 
1072.00000, 
1072.50000, 
1073.00000, 
1073.50000, 
1074.00000, 
1074.50000, 
1075.00000, 
1075.50000, 
1076.00000, 
1076.50000, 
1077.00000, 
1077.50000, 
1078.00000, 
1078.50000, 
1079.00000, 
1079.50000, 
1080.00000, 
1080.50000, 
1081.00000, 
1081.50000, 
1082.00000, 
1082.50000, 
1083.00000, 
1083.50000, 
1084.00000, 
1084.50000, 
1085.00000, 
1085.50000, 
1086.00000, 
1086.50000, 
1087.00000, 
1087.50000, 
1088.00000, 
1088.50000, 
1089.00000, 
1089.50000, 
1090.00000, 
1090.50000, 
1091.00000, 
1091.50000, 
1092.00000, 
1092.50000, 
1093.00000, 
1093.50000, 
1094.00000, 
1094.50000, 
1095.00000, 
1095.50000, 
1096.00000, 
1096.50000, 
1097.00000, 
1097.50000, 
1098.00000, 
1098.50000, 
1099.00000, 
1099.50000, 
1100.00000, 
