"40%V - RawData"
"Wavelength nm.","Abs."
300.00000,3.979965
300.50000, 
301.00000,3.963516
301.50000, 
302.00000,3.990723
302.50000, 
303.00000,4.000000
303.50000, 
304.00000,3.993011
304.50000, 
305.00000,3.915939
305.50000, 
306.00000,3.947006
306.50000, 
307.00000,3.723129
307.50000, 
308.00000,3.713837
308.50000, 
309.00000,3.896881
309.50000, 
310.00000,3.965805
310.50000, 
311.00000,3.886414
311.50000, 
312.00000,3.936264
312.50000, 
313.00000,3.932449
313.50000, 
314.00000,3.964874
314.50000, 
315.00000,3.978912
315.50000, 
316.00000,3.926971
316.50000, 
317.00000,3.827347
317.50000, 
318.00000,3.967575
318.50000, 
319.00000,3.951340
319.50000, 
320.00000,3.918472
320.50000, 
321.00000,3.949783
321.50000, 
322.00000,3.972610
322.50000, 
323.00000,3.721512
323.50000, 
324.00000,3.876434
324.50000, 
325.00000,3.839844
325.50000, 
326.00000,3.978531
326.50000, 
327.00000,3.936462
327.50000, 
328.00000,3.902908
328.50000, 
329.00000,3.949387
329.50000, 
330.00000,3.951736
330.50000, 
331.00000,3.896179
331.50000, 
332.00000,3.834549
332.50000, 
333.00000,3.725189
333.50000, 
334.00000,3.899155
334.50000, 
335.00000,3.957031
335.50000, 
336.00000,3.926422
336.50000, 
337.00000,3.963516
337.50000, 
338.00000,3.919601
338.50000, 
339.00000,3.960739
339.50000, 
340.00000,3.811386
340.50000, 
341.00000,3.832367
341.50000, 
342.00000,3.719467
342.50000, 
343.00000,3.768936
343.50000, 
344.00000,3.933868
344.50000, 
345.00000,3.680511
345.50000, 
346.00000,3.882675
346.50000, 
347.00000,3.884613
347.50000, 
348.00000,3.959015
348.50000, 
349.00000,3.887756
349.50000, 
350.00000,3.731903
350.50000, 
351.00000,3.707825
351.50000, 
352.00000,3.783813
352.50000, 
353.00000,3.943832
353.50000, 
354.00000,3.989258
354.50000, 
355.00000,3.972580
355.50000, 
356.00000,3.932388
356.50000, 
357.00000,3.909103
357.50000, 
358.00000,3.811249
358.50000, 
359.00000,3.764832
359.50000, 
360.00000,3.973480
360.50000, 
361.00000,3.881668
361.50000, 
362.00000,3.909576
362.50000, 
363.00000,3.870514
363.50000, 
364.00000,3.853104
364.50000, 
365.00000,3.879181
365.50000, 
366.00000,3.925888
366.50000, 
367.00000,3.712875
367.50000, 
368.00000,3.713623
368.50000, 
369.00000,3.944443
369.50000, 
370.00000,3.959335
370.50000, 
371.00000,3.805115
371.50000, 
372.00000,3.932404
372.50000, 
373.00000,3.931976
373.50000, 
374.00000,3.810104
374.50000, 
375.00000,3.915085
375.50000, 
376.00000,3.827606
376.50000, 
377.00000,3.874451
377.50000, 
378.00000,3.892731
378.50000, 
379.00000,3.818253
379.50000, 
380.00000,3.847229
380.50000, 
381.00000,3.552307
381.50000, 
382.00000,3.502396
382.50000, 
383.00000,3.240143
383.50000, 
384.00000,3.029633
384.50000, 
385.00000,2.771362
385.50000, 
386.00000,2.580750
386.50000, 
387.00000,2.401733
387.50000, 
388.00000,2.231705
388.50000, 
389.00000,2.070862
389.50000, 
390.00000,1.940506
390.50000, 
391.00000,1.820374
391.50000, 
392.00000,1.718857
392.50000, 
393.00000,1.629013
393.50000, 
394.00000,1.548004
394.50000, 
395.00000,1.480530
395.50000, 
396.00000,1.423080
396.50000, 
397.00000,1.374908
397.50000, 
398.00000,1.337250
398.50000, 
399.00000,1.304153
399.50000, 
400.00000,1.274490
400.50000, 
401.00000,1.247665
401.50000, 
402.00000,1.223206
402.50000, 
403.00000,1.201035
403.50000, 
404.00000,1.179352
404.50000, 
405.00000,1.160217
405.50000, 
406.00000,1.142166
406.50000, 
407.00000,1.125641
407.50000, 
408.00000,1.111023
408.50000, 
409.00000,1.098022
409.50000, 
410.00000,1.085770
410.50000, 
411.00000,1.075943
411.50000, 
412.00000,1.066422
412.50000, 
413.00000,1.058502
413.50000, 
414.00000,1.051086
414.50000, 
415.00000,1.044144
415.50000, 
416.00000,1.038818
416.50000, 
417.00000,1.033844
417.50000, 
418.00000,1.028702
418.50000, 
419.00000,1.024063
419.50000, 
420.00000,1.020096
420.50000, 
421.00000,1.016113
421.50000, 
422.00000,1.012604
422.50000, 
423.00000,1.009384
423.50000, 
424.00000,1.006226
424.50000, 
425.00000,1.003281
425.50000, 
426.00000,1.000656
426.50000, 
427.00000,0.998138
427.50000, 
428.00000,0.995834
428.50000, 
429.00000,0.993820
429.50000, 
430.00000,0.992004
430.50000, 
431.00000,0.990128
431.50000, 
432.00000,0.988449
432.50000, 
433.00000,0.987030
433.50000, 
434.00000,0.985504
434.50000, 
435.00000,0.984055
435.50000, 
436.00000,0.982803
436.50000, 
437.00000,0.981049
437.50000, 
438.00000,0.979507
438.50000, 
439.00000,0.978226
439.50000, 
440.00000,0.977020
440.50000, 
441.00000,0.975616
441.50000, 
442.00000,0.974533
442.50000, 
443.00000,0.973450
443.50000, 
444.00000,0.972198
444.50000, 
445.00000,0.971100
445.50000, 
446.00000,0.970139
446.50000, 
447.00000,0.969299
447.50000, 
448.00000,0.968079
448.50000, 
449.00000,0.967194
449.50000, 
450.00000,0.966354
450.50000, 
451.00000,0.965363
451.50000, 
452.00000,0.964462
452.50000, 
453.00000,0.963623
453.50000, 
454.00000,0.962967
454.50000, 
455.00000,0.962173
455.50000, 
456.00000,0.961243
456.50000, 
457.00000,0.960419
457.50000, 
458.00000,0.959610
458.50000, 
459.00000,0.958862
459.50000, 
460.00000,0.957977
460.50000, 
461.00000,0.957260
461.50000, 
462.00000,0.956360
462.50000, 
463.00000,0.955505
463.50000, 
464.00000,0.954483
464.50000, 
465.00000,0.953583
465.50000, 
466.00000,0.952469
466.50000, 
467.00000,0.951065
467.50000, 
468.00000,0.949661
468.50000, 
469.00000,0.948151
469.50000, 
470.00000,0.946136
470.50000, 
471.00000,0.943512
471.50000, 
472.00000,0.939636
472.50000, 
473.00000,0.933838
473.50000, 
474.00000,0.930756
474.50000, 
475.00000,0.932053
475.50000, 
476.00000,0.934357
476.50000, 
477.00000,0.937531
477.50000, 
478.00000,0.941528
478.50000, 
479.00000,0.946686
479.50000, 
480.00000,0.953094
480.50000, 
481.00000,0.961029
481.50000, 
482.00000,0.970398
482.50000, 
483.00000,0.981491
483.50000, 
484.00000,0.994858
484.50000, 
485.00000,1.009277
485.50000, 
486.00000,1.025253
486.50000, 
487.00000,1.042770
487.50000, 
488.00000,1.060272
488.50000, 
489.00000,1.077148
489.50000, 
490.00000,1.092224
490.50000, 
491.00000,1.104858
491.50000, 
492.00000,1.114502
492.50000, 
493.00000,1.121292
493.50000, 
494.00000,1.124817
494.50000, 
495.00000,1.125412
495.50000, 
496.00000,1.123520
496.50000, 
497.00000,1.119720
497.50000, 
498.00000,1.114304
498.50000, 
499.00000,1.108414
499.50000, 
500.00000,1.102112
500.50000, 
501.00000,1.095016
501.50000, 
502.00000,1.087692
502.50000, 
503.00000,1.080795
503.50000, 
504.00000,1.074173
504.50000, 
505.00000,1.067612
505.50000, 
506.00000,1.061111
506.50000, 
507.00000,1.055527
507.50000, 
508.00000,1.049973
508.50000, 
509.00000,1.045029
509.50000, 
510.00000,1.040207
510.50000, 
511.00000,1.035965
511.50000, 
512.00000,1.031876
512.50000, 
513.00000,1.027924
513.50000, 
514.00000,1.024384
514.50000, 
515.00000,1.020966
515.50000, 
516.00000,1.017746
516.50000, 
517.00000,1.014938
517.50000, 
518.00000,1.012131
518.50000, 
519.00000,1.009613
519.50000, 
520.00000,1.007065
520.50000, 
521.00000,1.004745
521.50000, 
522.00000,1.002640
522.50000, 
523.00000,1.000412
523.50000, 
524.00000,0.998367
524.50000, 
525.00000,0.996506
525.50000, 
526.00000,0.994614
526.50000, 
527.00000,0.992798
527.50000, 
528.00000,0.991196
528.50000, 
529.00000,0.989532
529.50000, 
530.00000,0.987991
530.50000, 
531.00000,0.986542
531.50000, 
532.00000,0.985306
532.50000, 
533.00000,0.984024
533.50000, 
534.00000,0.982819
534.50000, 
535.00000,0.981659
535.50000, 
536.00000,0.979980
536.50000, 
537.00000,0.978088
537.50000, 
538.00000,0.977249
538.50000, 
539.00000,0.976456
539.50000, 
540.00000,0.975586
540.50000, 
541.00000,0.974762
541.50000, 
542.00000,0.973999
542.50000, 
543.00000,0.973267
543.50000, 
544.00000,0.972427
544.50000, 
545.00000,0.971710
545.50000, 
546.00000,0.970947
546.50000, 
547.00000,0.970200
547.50000, 
548.00000,0.969437
548.50000, 
549.00000,0.968826
549.50000, 
550.00000,0.967865
550.50000, 
551.00000,0.967163
551.50000, 
552.00000,0.966400
552.50000, 
553.00000,0.965607
553.50000, 
554.00000,0.964722
554.50000, 
555.00000,0.963821
555.50000, 
556.00000,0.962906
556.50000, 
557.00000,0.961914
557.50000, 
558.00000,0.960861
558.50000, 
559.00000,0.959854
559.50000, 
560.00000,0.958817
560.50000, 
561.00000,0.957779
561.50000, 
562.00000,0.956696
562.50000, 
563.00000,0.955490
563.50000, 
564.00000,0.954422
564.50000, 
565.00000,0.953156
565.50000, 
566.00000,0.951965
566.50000, 
567.00000,0.950806
567.50000, 
568.00000,0.949570
568.50000, 
569.00000,0.948303
569.50000, 
570.00000,0.947098
570.50000, 
571.00000,0.945877
571.50000, 
572.00000,0.944702
572.50000, 
573.00000,0.943436
573.50000, 
574.00000,0.942245
574.50000, 
575.00000,0.940979
575.50000, 
576.00000,0.939835
576.50000, 
577.00000,0.938721
577.50000, 
578.00000,0.937607
578.50000, 
579.00000,0.936539
579.50000, 
580.00000,0.935577
580.50000, 
581.00000,0.934570
581.50000, 
582.00000,0.933792
582.50000, 
583.00000,0.932953
583.50000, 
584.00000,0.932144
584.50000, 
585.00000,0.931503
585.50000, 
586.00000,0.930847
586.50000, 
587.00000,0.930191
587.50000, 
588.00000,0.929657
588.50000, 
589.00000,0.929123
589.50000, 
590.00000,0.928757
590.50000, 
591.00000,0.928345
591.50000, 
592.00000,0.927963
592.50000, 
593.00000,0.927475
593.50000, 
594.00000,0.927032
594.50000, 
595.00000,0.926559
595.50000, 
596.00000,0.926071
596.50000, 
597.00000,0.925613
597.50000, 
598.00000,0.925095
598.50000, 
599.00000,0.924515
599.50000, 
600.00000,0.923874
600.50000, 
601.00000,0.923187
601.50000, 
602.00000,0.922318
602.50000, 
603.00000,0.921448
603.50000, 
604.00000,0.920380
604.50000, 
605.00000,0.919250
605.50000, 
606.00000,0.918045
606.50000, 
607.00000,0.916763
607.50000, 
608.00000,0.915375
608.50000, 
609.00000,0.913986
609.50000, 
610.00000,0.912338
610.50000, 
611.00000,0.910736
611.50000, 
612.00000,0.909012
612.50000, 
613.00000,0.907089
613.50000, 
614.00000,0.905212
614.50000, 
615.00000,0.903183
615.50000, 
616.00000,0.901062
616.50000, 
617.00000,0.899017
617.50000, 
618.00000,0.896744
618.50000, 
619.00000,0.894455
619.50000, 
620.00000,0.892151
620.50000, 
621.00000,0.889603
621.50000, 
622.00000,0.887039
622.50000, 
623.00000,0.884399
623.50000, 
624.00000,0.881714
624.50000, 
625.00000,0.878845
625.50000, 
626.00000,0.875916
626.50000, 
627.00000,0.872833
627.50000, 
628.00000,0.869537
628.50000, 
629.00000,0.866043
629.50000, 
630.00000,0.862167
630.50000, 
631.00000,0.857788
631.50000, 
632.00000,0.852463
632.50000, 
633.00000,0.844925
633.50000, 
634.00000,0.833420
634.50000, 
635.00000,0.830368
635.50000, 
636.00000,0.842346
636.50000, 
637.00000,0.859116
637.50000, 
638.00000,0.880020
638.50000, 
639.00000,0.906128
639.50000, 
640.00000,0.936371
640.50000, 
641.00000,0.969971
641.50000, 
642.00000,1.005875
642.50000, 
643.00000,1.040085
643.50000, 
644.00000,1.069717
644.50000, 
645.00000,1.091949
645.50000, 
646.00000,1.105820
646.50000, 
647.00000,1.110703
647.50000, 
648.00000,1.107239
648.50000, 
649.00000,1.097610
649.50000, 
650.00000,1.083755
650.50000, 
651.00000,1.067902
651.50000, 
652.00000,1.051361
652.50000, 
653.00000,1.035126
653.50000, 
654.00000,1.019211
654.50000, 
655.00000,1.004410
655.50000, 
656.00000,0.991043
656.50000, 
657.00000,0.978760
657.50000, 
658.00000,0.967590
658.50000, 
659.00000,0.957352
659.50000, 
660.00000,0.947693
660.50000, 
661.00000,0.938950
661.50000, 
662.00000,0.931015
662.50000, 
663.00000,0.923630
663.50000, 
664.00000,0.916901
664.50000, 
665.00000,0.910690
665.50000, 
666.00000,0.904968
666.50000, 
667.00000,0.899765
667.50000, 
668.00000,0.894760
668.50000, 
669.00000,0.890015
669.50000, 
670.00000,0.885498
670.50000, 
671.00000,0.881409
671.50000, 
672.00000,0.877335
672.50000, 
673.00000,0.873764
673.50000, 
674.00000,0.870300
674.50000, 
675.00000,0.866989
675.50000, 
676.00000,0.863815
676.50000, 
677.00000,0.860992
677.50000, 
678.00000,0.858154
678.50000, 
679.00000,0.855515
679.50000, 
680.00000,0.852966
680.50000, 
681.00000,0.850723
681.50000, 
682.00000,0.848389
682.50000, 
683.00000,0.846298
683.50000, 
684.00000,0.844208
684.50000, 
685.00000,0.842270
685.50000, 
686.00000,0.840469
686.50000, 
687.00000,0.838745
687.50000, 
688.00000,0.837006
688.50000, 
689.00000,0.835434
689.50000, 
690.00000,0.833786
690.50000, 
691.00000,0.832306
691.50000, 
692.00000,0.830902
692.50000, 
693.00000,0.829514
693.50000, 
694.00000,0.828140
694.50000, 
695.00000,0.826782
695.50000, 
696.00000,0.825439
696.50000, 
697.00000,0.824219
697.50000, 
698.00000,0.822983
698.50000, 
699.00000,0.821777
699.50000, 
700.00000,0.820587
700.50000, 
701.00000,0.819489
701.50000, 
702.00000,0.818420
702.50000, 
703.00000,0.817368
703.50000, 
704.00000,0.816376
704.50000, 
705.00000,0.815323
705.50000, 
706.00000,0.814407
706.50000, 
707.00000,0.813263
707.50000, 
708.00000,0.812408
708.50000, 
709.00000,0.811340
709.50000, 
710.00000,0.810394
710.50000, 
711.00000,0.809357
711.50000, 
712.00000,0.808212
712.50000, 
713.00000,0.807297
713.50000, 
714.00000,0.806213
714.50000, 
715.00000,0.805130
715.50000, 
716.00000,0.804092
716.50000, 
717.00000,0.803070
717.50000, 
718.00000,0.801956
718.50000, 
719.00000,0.800949
719.50000, 
720.00000,0.799896
720.50000, 
721.00000,0.798920
721.50000, 
722.00000,0.797943
722.50000, 
723.00000,0.796936
723.50000, 
724.00000,0.796036
724.50000, 
725.00000,0.795090
725.50000, 
726.00000,0.794189
726.50000, 
727.00000,0.793243
727.50000, 
728.00000,0.792526
728.50000, 
729.00000,0.791672
729.50000, 
730.00000,0.790894
730.50000, 
731.00000,0.790176
731.50000, 
732.00000,0.789383
732.50000, 
733.00000,0.788666
733.50000, 
734.00000,0.787949
734.50000, 
735.00000,0.787308
735.50000, 
736.00000,0.786743
736.50000, 
737.00000,0.786118
737.50000, 
738.00000,0.785431
738.50000, 
739.00000,0.784775
739.50000, 
740.00000,0.784195
740.50000, 
741.00000,0.783646
741.50000, 
742.00000,0.783035
742.50000, 
743.00000,0.782486
743.50000, 
744.00000,0.781937
744.50000, 
745.00000,0.781357
745.50000, 
746.00000,0.780731
746.50000, 
747.00000,0.780151
747.50000, 
748.00000,0.779495
748.50000, 
749.00000,0.778946
749.50000, 
750.00000,0.778519
750.50000, 
751.00000,0.777924
751.50000, 
752.00000,0.777435
752.50000, 
753.00000,0.777039
753.50000, 
754.00000,0.776550
754.50000, 
755.00000,0.776184
755.50000, 
756.00000,0.775772
756.50000, 
757.00000,0.775253
757.50000, 
758.00000,0.774994
758.50000, 
759.00000,0.774475
759.50000, 
760.00000,0.774323
760.50000, 
761.00000,0.773849
761.50000, 
762.00000,0.773392
762.50000, 
763.00000,0.773193
763.50000, 
764.00000,0.772720
764.50000, 
765.00000,0.772552
765.50000, 
766.00000,0.772079
766.50000, 
767.00000,0.771790
767.50000, 
768.00000,0.771484
768.50000, 
769.00000,0.771088
769.50000, 
770.00000,0.770752
770.50000, 
771.00000,0.770477
771.50000, 
772.00000,0.770218
772.50000, 
773.00000,0.769882
773.50000, 
774.00000,0.769592
774.50000, 
775.00000,0.769104
775.50000, 
776.00000,0.768982
776.50000, 
777.00000,0.768509
777.50000, 
778.00000,0.768417
778.50000, 
779.00000,0.767868
779.50000, 
780.00000,0.767593
780.50000, 
781.00000,0.767380
781.50000, 
782.00000,0.766998
782.50000, 
783.00000,0.766632
783.50000, 
784.00000,0.766342
784.50000, 
785.00000,0.765808
785.50000, 
786.00000,0.765503
786.50000, 
787.00000,0.764999
787.50000, 
788.00000,0.764359
788.50000, 
789.00000,0.764069
789.50000, 
790.00000,0.763382
790.50000, 
791.00000,0.762955
791.50000, 
792.00000,0.762253
792.50000, 
793.00000,0.761566
793.50000, 
794.00000,0.760834
794.50000, 
795.00000,0.760117
795.50000, 
796.00000,0.759064
796.50000, 
797.00000,0.758575
797.50000, 
798.00000,0.757278
798.50000, 
799.00000,0.756439
799.50000, 
800.00000,0.755325
800.50000, 
801.00000,0.754150
801.50000, 
802.00000,0.752686
802.50000, 
803.00000,0.751709
803.50000, 
804.00000,0.749908
804.50000, 
805.00000,0.748734
805.50000, 
806.00000,0.747101
806.50000, 
807.00000,0.745331
807.50000, 
808.00000,0.743546
808.50000, 
809.00000,0.741699
809.50000, 
810.00000,0.739105
810.50000, 
811.00000,0.737198
811.50000, 
812.00000,0.734650
812.50000, 
813.00000,0.732147
813.50000, 
814.00000,0.729675
814.50000, 
815.00000,0.726944
815.50000, 
816.00000,0.723648
816.50000, 
817.00000,0.720932
817.50000, 
818.00000,0.717346
818.50000, 
819.00000,0.714157
819.50000, 
820.00000,0.710846
820.50000, 
821.00000,0.707092
821.50000, 
822.00000,0.703369
822.50000, 
823.00000,0.699844
823.50000, 
824.00000,0.695724
824.50000, 
825.00000,0.691727
825.50000, 
826.00000,0.688065
826.50000, 
827.00000,0.683395
827.50000, 
828.00000,0.679001
828.50000, 
829.00000,0.674652
829.50000, 
830.00000,0.670029
830.50000, 
831.00000,0.664871
831.50000, 
832.00000,0.660416
832.50000, 
833.00000,0.655014
833.50000, 
834.00000,0.649963
834.50000, 
835.00000,0.644974
835.50000, 
836.00000,0.639359
836.50000, 
837.00000,0.633698
837.50000, 
838.00000,0.628540
838.50000, 
839.00000,0.622528
839.50000, 
840.00000,0.617035
840.50000, 
841.00000,0.612076
841.50000, 
842.00000,0.606003
842.50000, 
843.00000,0.600266
843.50000, 
844.00000,0.594711
844.50000, 
845.00000,0.588928
845.50000, 
846.00000,0.582703
846.50000, 
847.00000,0.577667
847.50000, 
848.00000,0.572052
848.50000, 
849.00000,0.565918
849.50000, 
850.00000,0.560669
850.50000, 
851.00000,0.555023
851.50000, 
852.00000,0.549149
852.50000, 
853.00000,0.543198
853.50000, 
854.00000,0.537720
854.50000, 
855.00000,0.531281
855.50000, 
856.00000,0.525696
856.50000, 
857.00000,0.520233
857.50000, 
858.00000,0.513870
858.50000, 
859.00000,0.508087
859.50000, 
860.00000,0.502731
860.50000, 
861.00000,0.497131
861.50000, 
862.00000,0.491058
862.50000, 
863.00000,0.486053
863.50000, 
864.00000,0.480270
864.50000, 
865.00000,0.474518
865.50000, 
866.00000,0.469635
866.50000, 
867.00000,0.464706
867.50000, 
868.00000,0.459259
868.50000, 
869.00000,0.454391
869.50000, 
870.00000,0.449982
870.50000, 
871.00000,0.444580
871.50000, 
872.00000,0.439560
872.50000, 
873.00000,0.435303
873.50000, 
874.00000,0.430542
874.50000, 
875.00000,0.425522
875.50000, 
876.00000,0.421127
876.50000, 
877.00000,0.416870
877.50000, 
878.00000,0.411743
878.50000, 
879.00000,0.407471
879.50000, 
880.00000,0.403381
880.50000, 
881.00000,0.398453
881.50000, 
882.00000,0.394028
882.50000, 
883.00000,0.390472
883.50000, 
884.00000,0.386292
884.50000, 
885.00000,0.381760
885.50000, 
886.00000,0.378403
886.50000, 
887.00000,0.374847
887.50000, 
888.00000,0.370407
888.50000, 
889.00000,0.366959
889.50000, 
890.00000,0.364166
890.50000, 
891.00000,0.360413
891.50000, 
892.00000,0.356796
892.50000, 
893.00000,0.354111
893.50000, 
894.00000,0.350952
894.50000, 
895.00000,0.347488
895.50000, 
896.00000,0.344406
896.50000, 
897.00000,0.341812
897.50000, 
898.00000,0.338760
898.50000, 
899.00000,0.335342
899.50000, 
900.00000,0.333450
900.50000, 
901.00000, 
901.50000, 
902.00000, 
902.50000, 
903.00000, 
903.50000, 
904.00000, 
904.50000, 
905.00000, 
905.50000, 
906.00000, 
906.50000, 
907.00000, 
907.50000, 
908.00000, 
908.50000, 
909.00000, 
909.50000, 
910.00000, 
910.50000, 
911.00000, 
911.50000, 
912.00000, 
912.50000, 
913.00000, 
913.50000, 
914.00000, 
914.50000, 
915.00000, 
915.50000, 
916.00000, 
916.50000, 
917.00000, 
917.50000, 
918.00000, 
918.50000, 
919.00000, 
919.50000, 
920.00000, 
920.50000, 
921.00000, 
921.50000, 
922.00000, 
922.50000, 
923.00000, 
923.50000, 
924.00000, 
924.50000, 
925.00000, 
925.50000, 
926.00000, 
926.50000, 
927.00000, 
927.50000, 
928.00000, 
928.50000, 
929.00000, 
929.50000, 
930.00000, 
930.50000, 
931.00000, 
931.50000, 
932.00000, 
932.50000, 
933.00000, 
933.50000, 
934.00000, 
934.50000, 
935.00000, 
935.50000, 
936.00000, 
936.50000, 
937.00000, 
937.50000, 
938.00000, 
938.50000, 
939.00000, 
939.50000, 
940.00000, 
940.50000, 
941.00000, 
941.50000, 
942.00000, 
942.50000, 
943.00000, 
943.50000, 
944.00000, 
944.50000, 
945.00000, 
945.50000, 
946.00000, 
946.50000, 
947.00000, 
947.50000, 
948.00000, 
948.50000, 
949.00000, 
949.50000, 
950.00000, 
950.50000, 
951.00000, 
951.50000, 
952.00000, 
952.50000, 
953.00000, 
953.50000, 
954.00000, 
954.50000, 
955.00000, 
955.50000, 
956.00000, 
956.50000, 
957.00000, 
957.50000, 
958.00000, 
958.50000, 
959.00000, 
959.50000, 
960.00000, 
960.50000, 
961.00000, 
961.50000, 
962.00000, 
962.50000, 
963.00000, 
963.50000, 
964.00000, 
964.50000, 
965.00000, 
965.50000, 
966.00000, 
966.50000, 
967.00000, 
967.50000, 
968.00000, 
968.50000, 
969.00000, 
969.50000, 
970.00000, 
970.50000, 
971.00000, 
971.50000, 
972.00000, 
972.50000, 
973.00000, 
973.50000, 
974.00000, 
974.50000, 
975.00000, 
975.50000, 
976.00000, 
976.50000, 
977.00000, 
977.50000, 
978.00000, 
978.50000, 
979.00000, 
979.50000, 
980.00000, 
980.50000, 
981.00000, 
981.50000, 
982.00000, 
982.50000, 
983.00000, 
983.50000, 
984.00000, 
984.50000, 
985.00000, 
985.50000, 
986.00000, 
986.50000, 
987.00000, 
987.50000, 
988.00000, 
988.50000, 
989.00000, 
989.50000, 
990.00000, 
990.50000, 
991.00000, 
991.50000, 
992.00000, 
992.50000, 
993.00000, 
993.50000, 
994.00000, 
994.50000, 
995.00000, 
995.50000, 
996.00000, 
996.50000, 
997.00000, 
997.50000, 
998.00000, 
998.50000, 
999.00000, 
999.50000, 
1000.00000, 
1000.50000, 
1001.00000, 
1001.50000, 
1002.00000, 
1002.50000, 
1003.00000, 
1003.50000, 
1004.00000, 
1004.50000, 
1005.00000, 
1005.50000, 
1006.00000, 
1006.50000, 
1007.00000, 
1007.50000, 
1008.00000, 
1008.50000, 
1009.00000, 
1009.50000, 
1010.00000, 
1010.50000, 
1011.00000, 
1011.50000, 
1012.00000, 
1012.50000, 
1013.00000, 
1013.50000, 
1014.00000, 
1014.50000, 
1015.00000, 
1015.50000, 
1016.00000, 
1016.50000, 
1017.00000, 
1017.50000, 
1018.00000, 
1018.50000, 
1019.00000, 
1019.50000, 
1020.00000, 
1020.50000, 
1021.00000, 
1021.50000, 
1022.00000, 
1022.50000, 
1023.00000, 
1023.50000, 
1024.00000, 
1024.50000, 
1025.00000, 
1025.50000, 
1026.00000, 
1026.50000, 
1027.00000, 
1027.50000, 
1028.00000, 
1028.50000, 
1029.00000, 
1029.50000, 
1030.00000, 
1030.50000, 
1031.00000, 
1031.50000, 
1032.00000, 
1032.50000, 
1033.00000, 
1033.50000, 
1034.00000, 
1034.50000, 
1035.00000, 
1035.50000, 
1036.00000, 
1036.50000, 
1037.00000, 
1037.50000, 
1038.00000, 
1038.50000, 
1039.00000, 
1039.50000, 
1040.00000, 
1040.50000, 
1041.00000, 
1041.50000, 
1042.00000, 
1042.50000, 
1043.00000, 
1043.50000, 
1044.00000, 
1044.50000, 
1045.00000, 
1045.50000, 
1046.00000, 
1046.50000, 
1047.00000, 
1047.50000, 
1048.00000, 
1048.50000, 
1049.00000, 
1049.50000, 
1050.00000, 
1050.50000, 
1051.00000, 
1051.50000, 
1052.00000, 
1052.50000, 
1053.00000, 
1053.50000, 
1054.00000, 
1054.50000, 
1055.00000, 
1055.50000, 
1056.00000, 
1056.50000, 
1057.00000, 
1057.50000, 
1058.00000, 
1058.50000, 
1059.00000, 
1059.50000, 
1060.00000, 
1060.50000, 
1061.00000, 
1061.50000, 
1062.00000, 
1062.50000, 
1063.00000, 
1063.50000, 
1064.00000, 
1064.50000, 
1065.00000, 
1065.50000, 
1066.00000, 
1066.50000, 
1067.00000, 
1067.50000, 
1068.00000, 
1068.50000, 
1069.00000, 
1069.50000, 
1070.00000, 
1070.50000, 
1071.00000, 
1071.50000, 
1072.00000, 
1072.50000, 
1073.00000, 
1073.50000, 
1074.00000, 
1074.50000, 
1075.00000, 
1075.50000, 
1076.00000, 
1076.50000, 
1077.00000, 
1077.50000, 
1078.00000, 
1078.50000, 
1079.00000, 
1079.50000, 
1080.00000, 
1080.50000, 
1081.00000, 
1081.50000, 
1082.00000, 
1082.50000, 
1083.00000, 
1083.50000, 
1084.00000, 
1084.50000, 
1085.00000, 
1085.50000, 
1086.00000, 
1086.50000, 
1087.00000, 
1087.50000, 
1088.00000, 
1088.50000, 
1089.00000, 
1089.50000, 
1090.00000, 
1090.50000, 
1091.00000, 
1091.50000, 
1092.00000, 
1092.50000, 
1093.00000, 
1093.50000, 
1094.00000, 
1094.50000, 
1095.00000, 
1095.50000, 
1096.00000, 
1096.50000, 
1097.00000, 
1097.50000, 
1098.00000, 
1098.50000, 
1099.00000, 
1099.50000, 
1100.00000, 
