"50%H - RawData"
"Wavelength nm.","Abs."
300.00000,3.982498
300.50000, 
301.00000,3.938110
301.50000, 
302.00000,3.935730
302.50000, 
303.00000,3.956314
303.50000, 
304.00000,3.954254
304.50000, 
305.00000,3.974136
305.50000, 
306.00000,3.918213
306.50000, 
307.00000,4.000000
307.50000, 
308.00000,3.972351
308.50000, 
309.00000,3.953094
309.50000, 
310.00000,3.944244
310.50000, 
311.00000,3.933212
311.50000, 
312.00000,3.981842
312.50000, 
313.00000,4.000000
313.50000, 
314.00000,3.896973
314.50000, 
315.00000,3.893936
315.50000, 
316.00000,3.962280
316.50000, 
317.00000,3.962250
317.50000, 
318.00000,3.937439
318.50000, 
319.00000,3.785889
319.50000, 
320.00000,3.926804
320.50000, 
321.00000,3.953705
321.50000, 
322.00000,3.990814
322.50000, 
323.00000,3.971146
323.50000, 
324.00000,3.973984
324.50000, 
325.00000,4.000000
325.50000, 
326.00000,3.934570
326.50000, 
327.00000,3.999878
327.50000, 
328.00000,3.810806
328.50000, 
329.00000,3.992630
329.50000, 
330.00000,3.948517
330.50000, 
331.00000,3.977325
331.50000, 
332.00000,3.907333
332.50000, 
333.00000,3.946899
333.50000, 
334.00000,3.862488
334.50000, 
335.00000,3.903427
335.50000, 
336.00000,3.876968
336.50000, 
337.00000,3.830429
337.50000, 
338.00000,3.964371
338.50000, 
339.00000,4.000000
339.50000, 
340.00000,3.888916
340.50000, 
341.00000,3.961868
341.50000, 
342.00000,3.887329
342.50000, 
343.00000,3.860931
343.50000, 
344.00000,3.912689
344.50000, 
345.00000,3.928680
345.50000, 
346.00000,4.000000
346.50000, 
347.00000,3.861542
347.50000, 
348.00000,3.960281
348.50000, 
349.00000,3.917740
349.50000, 
350.00000,3.848740
350.50000, 
351.00000,3.851089
351.50000, 
352.00000,3.970062
352.50000, 
353.00000,4.000000
353.50000, 
354.00000,4.000000
354.50000, 
355.00000,3.894577
355.50000, 
356.00000,3.952423
356.50000, 
357.00000,3.955399
357.50000, 
358.00000,3.985306
358.50000, 
359.00000,3.985077
359.50000, 
360.00000,3.952011
360.50000, 
361.00000,3.969681
361.50000, 
362.00000,3.923691
362.50000, 
363.00000,3.918274
363.50000, 
364.00000,3.747375
364.50000, 
365.00000,3.814651
365.50000, 
366.00000,3.824890
366.50000, 
367.00000,3.872681
367.50000, 
368.00000,3.794998
368.50000, 
369.00000,3.923767
369.50000, 
370.00000,3.900375
370.50000, 
371.00000,3.888809
371.50000, 
372.00000,3.903641
372.50000, 
373.00000,3.940948
373.50000, 
374.00000,3.926361
374.50000, 
375.00000,3.817825
375.50000, 
376.00000,3.909515
376.50000, 
377.00000,3.927750
377.50000, 
378.00000,3.970993
378.50000, 
379.00000,3.823654
379.50000, 
380.00000,3.776901
380.50000, 
381.00000,3.589752
381.50000, 
382.00000,3.372772
382.50000, 
383.00000,3.194046
383.50000, 
384.00000,2.955109
384.50000, 
385.00000,2.732925
385.50000, 
386.00000,2.504868
386.50000, 
387.00000,2.318237
387.50000, 
388.00000,2.146286
388.50000, 
389.00000,1.983292
389.50000, 
390.00000,1.849838
390.50000, 
391.00000,1.722153
391.50000, 
392.00000,1.612045
392.50000, 
393.00000,1.516449
393.50000, 
394.00000,1.421204
394.50000, 
395.00000,1.342178
395.50000, 
396.00000,1.269073
396.50000, 
397.00000,1.204422
397.50000, 
398.00000,1.149078
398.50000, 
399.00000,1.100388
399.50000, 
400.00000,1.058136
400.50000, 
401.00000,1.022064
401.50000, 
402.00000,0.991104
402.50000, 
403.00000,0.966202
403.50000, 
404.00000,0.944519
404.50000, 
405.00000,0.927124
405.50000, 
406.00000,0.912643
406.50000, 
407.00000,0.900192
407.50000, 
408.00000,0.889832
408.50000, 
409.00000,0.881561
409.50000, 
410.00000,0.873764
410.50000, 
411.00000,0.867645
411.50000, 
412.00000,0.862625
412.50000, 
413.00000,0.858017
413.50000, 
414.00000,0.854004
414.50000, 
415.00000,0.850494
415.50000, 
416.00000,0.847488
416.50000, 
417.00000,0.844635
417.50000, 
418.00000,0.841980
418.50000, 
419.00000,0.839691
419.50000, 
420.00000,0.837494
420.50000, 
421.00000,0.835587
421.50000, 
422.00000,0.833496
422.50000, 
423.00000,0.831909
423.50000, 
424.00000,0.830276
424.50000, 
425.00000,0.828583
425.50000, 
426.00000,0.827179
426.50000, 
427.00000,0.825882
427.50000, 
428.00000,0.824982
428.50000, 
429.00000,0.823700
429.50000, 
430.00000,0.822556
430.50000, 
431.00000,0.821701
431.50000, 
432.00000,0.820892
432.50000, 
433.00000,0.820007
433.50000, 
434.00000,0.819107
434.50000, 
435.00000,0.818390
435.50000, 
436.00000,0.817581
436.50000, 
437.00000,0.816574
437.50000, 
438.00000,0.815659
438.50000, 
439.00000,0.814682
439.50000, 
440.00000,0.813766
440.50000, 
441.00000,0.812958
441.50000, 
442.00000,0.812057
442.50000, 
443.00000,0.811172
443.50000, 
444.00000,0.810104
444.50000, 
445.00000,0.809235
445.50000, 
446.00000,0.808578
446.50000, 
447.00000,0.807877
447.50000, 
448.00000,0.807144
448.50000, 
449.00000,0.806488
449.50000, 
450.00000,0.805710
450.50000, 
451.00000,0.804932
451.50000, 
452.00000,0.804413
452.50000, 
453.00000,0.803802
453.50000, 
454.00000,0.803101
454.50000, 
455.00000,0.802567
455.50000, 
456.00000,0.801987
456.50000, 
457.00000,0.801437
457.50000, 
458.00000,0.800873
458.50000, 
459.00000,0.800293
459.50000, 
460.00000,0.799957
460.50000, 
461.00000,0.799759
461.50000, 
462.00000,0.799255
462.50000, 
463.00000,0.799072
463.50000, 
464.00000,0.798813
464.50000, 
465.00000,0.798538
465.50000, 
466.00000,0.798523
466.50000, 
467.00000,0.798508
467.50000, 
468.00000,0.798660
468.50000, 
469.00000,0.798920
469.50000, 
470.00000,0.799423
470.50000, 
471.00000,0.800491
471.50000, 
472.00000,0.802505
472.50000, 
473.00000,0.805756
473.50000, 
474.00000,0.807297
474.50000, 
475.00000,0.805466
475.50000, 
476.00000,0.802933
476.50000, 
477.00000,0.799805
477.50000, 
478.00000,0.796112
478.50000, 
479.00000,0.791763
479.50000, 
480.00000,0.786469
480.50000, 
481.00000,0.780304
481.50000, 
482.00000,0.773727
482.50000, 
483.00000,0.766342
483.50000, 
484.00000,0.757980
484.50000, 
485.00000,0.749161
485.50000, 
486.00000,0.739914
486.50000, 
487.00000,0.730484
487.50000, 
488.00000,0.721725
488.50000, 
489.00000,0.713913
489.50000, 
490.00000,0.707123
490.50000, 
491.00000,0.701431
491.50000, 
492.00000,0.697159
492.50000, 
493.00000,0.694016
493.50000, 
494.00000,0.692093
494.50000, 
495.00000,0.691299
495.50000, 
496.00000,0.691406
496.50000, 
497.00000,0.692261
497.50000, 
498.00000,0.693634
498.50000, 
499.00000,0.695389
499.50000, 
500.00000,0.697189
500.50000, 
501.00000,0.699280
501.50000, 
502.00000,0.701569
502.50000, 
503.00000,0.703766
503.50000, 
504.00000,0.705933
504.50000, 
505.00000,0.708115
505.50000, 
506.00000,0.710236
506.50000, 
507.00000,0.712189
507.50000, 
508.00000,0.714066
508.50000, 
509.00000,0.715652
509.50000, 
510.00000,0.717316
510.50000, 
511.00000,0.718613
511.50000, 
512.00000,0.719894
512.50000, 
513.00000,0.721130
513.50000, 
514.00000,0.722290
514.50000, 
515.00000,0.723297
515.50000, 
516.00000,0.724121
516.50000, 
517.00000,0.724915
517.50000, 
518.00000,0.725525
518.50000, 
519.00000,0.726227
519.50000, 
520.00000,0.726730
520.50000, 
521.00000,0.727203
521.50000, 
522.00000,0.727661
522.50000, 
523.00000,0.727982
523.50000, 
524.00000,0.728271
524.50000, 
525.00000,0.728561
525.50000, 
526.00000,0.728912
526.50000, 
527.00000,0.729126
527.50000, 
528.00000,0.729279
528.50000, 
529.00000,0.729309
529.50000, 
530.00000,0.729462
530.50000, 
531.00000,0.729553
531.50000, 
532.00000,0.729645
532.50000, 
533.00000,0.729691
533.50000, 
534.00000,0.729660
534.50000, 
535.00000,0.729706
535.50000, 
536.00000,0.729599
536.50000, 
537.00000,0.729141
537.50000, 
538.00000,0.729111
538.50000, 
539.00000,0.729050
539.50000, 
540.00000,0.728928
540.50000, 
541.00000,0.728851
541.50000, 
542.00000,0.728638
542.50000, 
543.00000,0.728485
543.50000, 
544.00000,0.728348
544.50000, 
545.00000,0.728134
545.50000, 
546.00000,0.727783
546.50000, 
547.00000,0.727402
547.50000, 
548.00000,0.727112
548.50000, 
549.00000,0.726654
549.50000, 
550.00000,0.726212
550.50000, 
551.00000,0.725815
551.50000, 
552.00000,0.725220
552.50000, 
553.00000,0.724640
553.50000, 
554.00000,0.723923
554.50000, 
555.00000,0.723114
555.50000, 
556.00000,0.722198
556.50000, 
557.00000,0.721222
557.50000, 
558.00000,0.720245
558.50000, 
559.00000,0.719315
559.50000, 
560.00000,0.718307
560.50000, 
561.00000,0.717148
561.50000, 
562.00000,0.716003
562.50000, 
563.00000,0.714874
563.50000, 
564.00000,0.713562
564.50000, 
565.00000,0.712234
565.50000, 
566.00000,0.710922
566.50000, 
567.00000,0.709625
567.50000, 
568.00000,0.708160
568.50000, 
569.00000,0.706726
569.50000, 
570.00000,0.705322
570.50000, 
571.00000,0.703857
571.50000, 
572.00000,0.702393
572.50000, 
573.00000,0.700882
573.50000, 
574.00000,0.699417
574.50000, 
575.00000,0.697906
575.50000, 
576.00000,0.696503
576.50000, 
577.00000,0.695099
577.50000, 
578.00000,0.693649
578.50000, 
579.00000,0.692245
579.50000, 
580.00000,0.690826
580.50000, 
581.00000,0.689468
581.50000, 
582.00000,0.688263
582.50000, 
583.00000,0.687057
583.50000, 
584.00000,0.685745
584.50000, 
585.00000,0.684662
585.50000, 
586.00000,0.683624
586.50000, 
587.00000,0.682571
587.50000, 
588.00000,0.681580
588.50000, 
589.00000,0.680649
589.50000, 
590.00000,0.679733
590.50000, 
591.00000,0.678925
591.50000, 
592.00000,0.677963
592.50000, 
593.00000,0.676987
593.50000, 
594.00000,0.675980
594.50000, 
595.00000,0.674911
595.50000, 
596.00000,0.673920
596.50000, 
597.00000,0.672852
597.50000, 
598.00000,0.671799
598.50000, 
599.00000,0.670609
599.50000, 
600.00000,0.669342
600.50000, 
601.00000,0.667953
601.50000, 
602.00000,0.666519
602.50000, 
603.00000,0.665009
603.50000, 
604.00000,0.663269
604.50000, 
605.00000,0.661469
605.50000, 
606.00000,0.659470
606.50000, 
607.00000,0.657532
607.50000, 
608.00000,0.655579
608.50000, 
609.00000,0.653397
609.50000, 
610.00000,0.651123
610.50000, 
611.00000,0.648865
611.50000, 
612.00000,0.646362
612.50000, 
613.00000,0.643890
613.50000, 
614.00000,0.641357
614.50000, 
615.00000,0.638687
615.50000, 
616.00000,0.635956
616.50000, 
617.00000,0.633179
617.50000, 
618.00000,0.630386
618.50000, 
619.00000,0.627579
619.50000, 
620.00000,0.624771
620.50000, 
621.00000,0.621857
621.50000, 
622.00000,0.618790
622.50000, 
623.00000,0.615784
623.50000, 
624.00000,0.612839
624.50000, 
625.00000,0.609833
625.50000, 
626.00000,0.606964
626.50000, 
627.00000,0.604111
627.50000, 
628.00000,0.601379
628.50000, 
629.00000,0.598755
629.50000, 
630.00000,0.596497
630.50000, 
631.00000,0.594666
631.50000, 
632.00000,0.593338
632.50000, 
633.00000,0.593399
633.50000, 
634.00000,0.595596
634.50000, 
635.00000,0.593124
635.50000, 
636.00000,0.582977
636.50000, 
637.00000,0.570602
637.50000, 
638.00000,0.557571
638.50000, 
639.00000,0.542740
639.50000, 
640.00000,0.527771
640.50000, 
641.00000,0.512970
641.50000, 
642.00000,0.499084
642.50000, 
643.00000,0.486984
643.50000, 
644.00000,0.476883
644.50000, 
645.00000,0.469345
645.50000, 
646.00000,0.463959
646.50000, 
647.00000,0.460815
647.50000, 
648.00000,0.459229
648.50000, 
649.00000,0.459229
649.50000, 
650.00000,0.460129
650.50000, 
651.00000,0.461899
651.50000, 
652.00000,0.463913
652.50000, 
653.00000,0.466080
653.50000, 
654.00000,0.468399
654.50000, 
655.00000,0.470596
655.50000, 
656.00000,0.472641
656.50000, 
657.00000,0.474442
657.50000, 
658.00000,0.476273
658.50000, 
659.00000,0.477783
659.50000, 
660.00000,0.479370
660.50000, 
661.00000,0.480469
661.50000, 
662.00000,0.481659
662.50000, 
663.00000,0.482513
663.50000, 
664.00000,0.483459
664.50000, 
665.00000,0.483994
665.50000, 
666.00000,0.484772
666.50000, 
667.00000,0.485168
667.50000, 
668.00000,0.485703
668.50000, 
669.00000,0.485992
669.50000, 
670.00000,0.486374
670.50000, 
671.00000,0.486450
671.50000, 
672.00000,0.486679
672.50000, 
673.00000,0.486771
673.50000, 
674.00000,0.486786
674.50000, 
675.00000,0.486725
675.50000, 
676.00000,0.486557
676.50000, 
677.00000,0.486450
677.50000, 
678.00000,0.486298
678.50000, 
679.00000,0.486023
679.50000, 
680.00000,0.485672
680.50000, 
681.00000,0.485413
681.50000, 
682.00000,0.485001
682.50000, 
683.00000,0.484726
683.50000, 
684.00000,0.484344
684.50000, 
685.00000,0.483902
685.50000, 
686.00000,0.483505
686.50000, 
687.00000,0.483109
687.50000, 
688.00000,0.482651
688.50000, 
689.00000,0.482162
689.50000, 
690.00000,0.481689
690.50000, 
691.00000,0.481033
691.50000, 
692.00000,0.480637
692.50000, 
693.00000,0.480011
693.50000, 
694.00000,0.479630
694.50000, 
695.00000,0.478806
695.50000, 
696.00000,0.478409
696.50000, 
697.00000,0.477615
697.50000, 
698.00000,0.477188
698.50000, 
699.00000,0.476364
699.50000, 
700.00000,0.475891
700.50000, 
701.00000,0.474899
701.50000, 
702.00000,0.474533
702.50000, 
703.00000,0.473679
703.50000, 
704.00000,0.473221
704.50000, 
705.00000,0.472290
705.50000, 
706.00000,0.471710
706.50000, 
707.00000,0.470795
707.50000, 
708.00000,0.470108
708.50000, 
709.00000,0.469284
709.50000, 
710.00000,0.468307
710.50000, 
711.00000,0.467606
711.50000, 
712.00000,0.466324
712.50000, 
713.00000,0.465637
713.50000, 
714.00000,0.464401
714.50000, 
715.00000,0.463593
715.50000, 
716.00000,0.462341
716.50000, 
717.00000,0.461319
717.50000, 
718.00000,0.460205
718.50000, 
719.00000,0.459091
719.50000, 
720.00000,0.458160
720.50000, 
721.00000,0.456818
721.50000, 
722.00000,0.455933
722.50000, 
723.00000,0.454575
723.50000, 
724.00000,0.453735
724.50000, 
725.00000,0.452423
725.50000, 
726.00000,0.451569
726.50000, 
727.00000,0.450455
727.50000, 
728.00000,0.449356
728.50000, 
729.00000,0.448486
729.50000, 
730.00000,0.447189
730.50000, 
731.00000,0.446518
731.50000, 
732.00000,0.445282
732.50000, 
733.00000,0.444504
733.50000, 
734.00000,0.443481
734.50000, 
735.00000,0.442413
735.50000, 
736.00000,0.441757
736.50000, 
737.00000,0.440506
737.50000, 
738.00000,0.439804
738.50000, 
739.00000,0.438797
739.50000, 
740.00000,0.437836
740.50000, 
741.00000,0.437149
741.50000, 
742.00000,0.435928
742.50000, 
743.00000,0.435318
743.50000, 
744.00000,0.434097
744.50000, 
745.00000,0.433334
745.50000, 
746.00000,0.432266
746.50000, 
747.00000,0.431168
747.50000, 
748.00000,0.430313
748.50000, 
749.00000,0.429108
749.50000, 
750.00000,0.428513
750.50000, 
751.00000,0.427383
751.50000, 
752.00000,0.426529
752.50000, 
753.00000,0.425827
753.50000, 
754.00000,0.424713
754.50000, 
755.00000,0.424194
755.50000, 
756.00000,0.423126
756.50000, 
757.00000,0.422256
757.50000, 
758.00000,0.421600
758.50000, 
759.00000,0.420395
759.50000, 
760.00000,0.420044
760.50000, 
761.00000,0.419022
761.50000, 
762.00000,0.418167
762.50000, 
763.00000,0.417572
763.50000, 
764.00000,0.416382
764.50000, 
765.00000,0.415817
765.50000, 
766.00000,0.414856
766.50000, 
767.00000,0.414017
767.50000, 
768.00000,0.413406
768.50000, 
769.00000,0.412399
769.50000, 
770.00000,0.411758
770.50000, 
771.00000,0.410828
771.50000, 
772.00000,0.409958
772.50000, 
773.00000,0.409409
773.50000, 
774.00000,0.408371
774.50000, 
775.00000,0.407730
775.50000, 
776.00000,0.407043
776.50000, 
777.00000,0.406036
777.50000, 
778.00000,0.405670
778.50000, 
779.00000,0.404572
779.50000, 
780.00000,0.403961
780.50000, 
781.00000,0.403381
781.50000, 
782.00000,0.402496
782.50000, 
783.00000,0.401855
783.50000, 
784.00000,0.401199
784.50000, 
785.00000,0.400146
785.50000, 
786.00000,0.399780
786.50000, 
787.00000,0.398819
787.50000, 
788.00000,0.397995
788.50000, 
789.00000,0.397430
789.50000, 
790.00000,0.396423
790.50000, 
791.00000,0.395874
791.50000, 
792.00000,0.395096
792.50000, 
793.00000,0.394165
793.50000, 
794.00000,0.393600
794.50000, 
795.00000,0.392715
795.50000, 
796.00000,0.391846
796.50000, 
797.00000,0.391418
797.50000, 
798.00000,0.390228
798.50000, 
799.00000,0.389694
799.50000, 
800.00000,0.388916
800.50000, 
801.00000,0.387955
801.50000, 
802.00000,0.387222
802.50000, 
803.00000,0.386520
803.50000, 
804.00000,0.385330
804.50000, 
805.00000,0.384842
805.50000, 
806.00000,0.383926
806.50000, 
807.00000,0.382919
807.50000, 
808.00000,0.382294
808.50000, 
809.00000,0.381271
809.50000, 
810.00000,0.380005
810.50000, 
811.00000,0.379318
811.50000, 
812.00000,0.378113
812.50000, 
813.00000,0.377121
813.50000, 
814.00000,0.376282
814.50000, 
815.00000,0.375137
815.50000, 
816.00000,0.373978
816.50000, 
817.00000,0.373016
817.50000, 
818.00000,0.371521
818.50000, 
819.00000,0.370590
819.50000, 
820.00000,0.369537
820.50000, 
821.00000,0.368103
821.50000, 
822.00000,0.367096
822.50000, 
823.00000,0.365860
823.50000, 
824.00000,0.364532
824.50000, 
825.00000,0.363281
825.50000, 
826.00000,0.362274
826.50000, 
827.00000,0.360550
827.50000, 
828.00000,0.359436
828.50000, 
829.00000,0.358109
829.50000, 
830.00000,0.356735
830.50000, 
831.00000,0.355240
831.50000, 
832.00000,0.354004
832.50000, 
833.00000,0.352295
833.50000, 
834.00000,0.350906
834.50000, 
835.00000,0.349533
835.50000, 
836.00000,0.347748
836.50000, 
837.00000,0.346298
837.50000, 
838.00000,0.344742
838.50000, 
839.00000,0.343033
839.50000, 
840.00000,0.341446
840.50000, 
841.00000,0.340118
841.50000, 
842.00000,0.338211
842.50000, 
843.00000,0.336700
843.50000, 
844.00000,0.335098
844.50000, 
845.00000,0.333389
845.50000, 
846.00000,0.331696
846.50000, 
847.00000,0.330246
847.50000, 
848.00000,0.328613
848.50000, 
849.00000,0.326767
849.50000, 
850.00000,0.325409
850.50000, 
851.00000,0.323532
851.50000, 
852.00000,0.321991
852.50000, 
853.00000,0.320313
853.50000, 
854.00000,0.318680
854.50000, 
855.00000,0.316788
855.50000, 
856.00000,0.315125
856.50000, 
857.00000,0.313507
857.50000, 
858.00000,0.311508
858.50000, 
859.00000,0.310013
859.50000, 
860.00000,0.308197
860.50000, 
861.00000,0.306625
861.50000, 
862.00000,0.304794
862.50000, 
863.00000,0.303207
863.50000, 
864.00000,0.301361
864.50000, 
865.00000,0.299713
865.50000, 
866.00000,0.298279
866.50000, 
867.00000,0.296539
867.50000, 
868.00000,0.295242
868.50000, 
869.00000,0.293686
869.50000, 
870.00000,0.292191
870.50000, 
871.00000,0.290634
871.50000, 
872.00000,0.289124
872.50000, 
873.00000,0.287811
873.50000, 
874.00000,0.286179
874.50000, 
875.00000,0.284912
875.50000, 
876.00000,0.283401
876.50000, 
877.00000,0.281998
877.50000, 
878.00000,0.280670
878.50000, 
879.00000,0.279160
879.50000, 
880.00000,0.277817
880.50000, 
881.00000,0.276245
881.50000, 
882.00000,0.275040
882.50000, 
883.00000,0.273682
883.50000, 
884.00000,0.272385
884.50000, 
885.00000,0.271133
885.50000, 
886.00000,0.269791
886.50000, 
887.00000,0.268784
887.50000, 
888.00000,0.267410
888.50000, 
889.00000,0.266327
889.50000, 
890.00000,0.265396
890.50000, 
891.00000,0.264191
891.50000, 
892.00000,0.263306
892.50000, 
893.00000,0.262177
893.50000, 
894.00000,0.261169
894.50000, 
895.00000,0.260406
895.50000, 
896.00000,0.259384
896.50000, 
897.00000,0.258499
897.50000, 
898.00000,0.257584
898.50000, 
899.00000,0.256836
899.50000, 
900.00000,0.256271
900.50000, 
901.00000, 
901.50000, 
902.00000, 
902.50000, 
903.00000, 
903.50000, 
904.00000, 
904.50000, 
905.00000, 
905.50000, 
906.00000, 
906.50000, 
907.00000, 
907.50000, 
908.00000, 
908.50000, 
909.00000, 
909.50000, 
910.00000, 
910.50000, 
911.00000, 
911.50000, 
912.00000, 
912.50000, 
913.00000, 
913.50000, 
914.00000, 
914.50000, 
915.00000, 
915.50000, 
916.00000, 
916.50000, 
917.00000, 
917.50000, 
918.00000, 
918.50000, 
919.00000, 
919.50000, 
920.00000, 
920.50000, 
921.00000, 
921.50000, 
922.00000, 
922.50000, 
923.00000, 
923.50000, 
924.00000, 
924.50000, 
925.00000, 
925.50000, 
926.00000, 
926.50000, 
927.00000, 
927.50000, 
928.00000, 
928.50000, 
929.00000, 
929.50000, 
930.00000, 
930.50000, 
931.00000, 
931.50000, 
932.00000, 
932.50000, 
933.00000, 
933.50000, 
934.00000, 
934.50000, 
935.00000, 
935.50000, 
936.00000, 
936.50000, 
937.00000, 
937.50000, 
938.00000, 
938.50000, 
939.00000, 
939.50000, 
940.00000, 
940.50000, 
941.00000, 
941.50000, 
942.00000, 
942.50000, 
943.00000, 
943.50000, 
944.00000, 
944.50000, 
945.00000, 
945.50000, 
946.00000, 
946.50000, 
947.00000, 
947.50000, 
948.00000, 
948.50000, 
949.00000, 
949.50000, 
950.00000, 
950.50000, 
951.00000, 
951.50000, 
952.00000, 
952.50000, 
953.00000, 
953.50000, 
954.00000, 
954.50000, 
955.00000, 
955.50000, 
956.00000, 
956.50000, 
957.00000, 
957.50000, 
958.00000, 
958.50000, 
959.00000, 
959.50000, 
960.00000, 
960.50000, 
961.00000, 
961.50000, 
962.00000, 
962.50000, 
963.00000, 
963.50000, 
964.00000, 
964.50000, 
965.00000, 
965.50000, 
966.00000, 
966.50000, 
967.00000, 
967.50000, 
968.00000, 
968.50000, 
969.00000, 
969.50000, 
970.00000, 
970.50000, 
971.00000, 
971.50000, 
972.00000, 
972.50000, 
973.00000, 
973.50000, 
974.00000, 
974.50000, 
975.00000, 
975.50000, 
976.00000, 
976.50000, 
977.00000, 
977.50000, 
978.00000, 
978.50000, 
979.00000, 
979.50000, 
980.00000, 
980.50000, 
981.00000, 
981.50000, 
982.00000, 
982.50000, 
983.00000, 
983.50000, 
984.00000, 
984.50000, 
985.00000, 
985.50000, 
986.00000, 
986.50000, 
987.00000, 
987.50000, 
988.00000, 
988.50000, 
989.00000, 
989.50000, 
990.00000, 
990.50000, 
991.00000, 
991.50000, 
992.00000, 
992.50000, 
993.00000, 
993.50000, 
994.00000, 
994.50000, 
995.00000, 
995.50000, 
996.00000, 
996.50000, 
997.00000, 
997.50000, 
998.00000, 
998.50000, 
999.00000, 
999.50000, 
1000.00000, 
1000.50000, 
1001.00000, 
1001.50000, 
1002.00000, 
1002.50000, 
1003.00000, 
1003.50000, 
1004.00000, 
1004.50000, 
1005.00000, 
1005.50000, 
1006.00000, 
1006.50000, 
1007.00000, 
1007.50000, 
1008.00000, 
1008.50000, 
1009.00000, 
1009.50000, 
1010.00000, 
1010.50000, 
1011.00000, 
1011.50000, 
1012.00000, 
1012.50000, 
1013.00000, 
1013.50000, 
1014.00000, 
1014.50000, 
1015.00000, 
1015.50000, 
1016.00000, 
1016.50000, 
1017.00000, 
1017.50000, 
1018.00000, 
1018.50000, 
1019.00000, 
1019.50000, 
1020.00000, 
1020.50000, 
1021.00000, 
1021.50000, 
1022.00000, 
1022.50000, 
1023.00000, 
1023.50000, 
1024.00000, 
1024.50000, 
1025.00000, 
1025.50000, 
1026.00000, 
1026.50000, 
1027.00000, 
1027.50000, 
1028.00000, 
1028.50000, 
1029.00000, 
1029.50000, 
1030.00000, 
1030.50000, 
1031.00000, 
1031.50000, 
1032.00000, 
1032.50000, 
1033.00000, 
1033.50000, 
1034.00000, 
1034.50000, 
1035.00000, 
1035.50000, 
1036.00000, 
1036.50000, 
1037.00000, 
1037.50000, 
1038.00000, 
1038.50000, 
1039.00000, 
1039.50000, 
1040.00000, 
1040.50000, 
1041.00000, 
1041.50000, 
1042.00000, 
1042.50000, 
1043.00000, 
1043.50000, 
1044.00000, 
1044.50000, 
1045.00000, 
1045.50000, 
1046.00000, 
1046.50000, 
1047.00000, 
1047.50000, 
1048.00000, 
1048.50000, 
1049.00000, 
1049.50000, 
1050.00000, 
1050.50000, 
1051.00000, 
1051.50000, 
1052.00000, 
1052.50000, 
1053.00000, 
1053.50000, 
1054.00000, 
1054.50000, 
1055.00000, 
1055.50000, 
1056.00000, 
1056.50000, 
1057.00000, 
1057.50000, 
1058.00000, 
1058.50000, 
1059.00000, 
1059.50000, 
1060.00000, 
1060.50000, 
1061.00000, 
1061.50000, 
1062.00000, 
1062.50000, 
1063.00000, 
1063.50000, 
1064.00000, 
1064.50000, 
1065.00000, 
1065.50000, 
1066.00000, 
1066.50000, 
1067.00000, 
1067.50000, 
1068.00000, 
1068.50000, 
1069.00000, 
1069.50000, 
1070.00000, 
1070.50000, 
1071.00000, 
1071.50000, 
1072.00000, 
1072.50000, 
1073.00000, 
1073.50000, 
1074.00000, 
1074.50000, 
1075.00000, 
1075.50000, 
1076.00000, 
1076.50000, 
1077.00000, 
1077.50000, 
1078.00000, 
1078.50000, 
1079.00000, 
1079.50000, 
1080.00000, 
1080.50000, 
1081.00000, 
1081.50000, 
1082.00000, 
1082.50000, 
1083.00000, 
1083.50000, 
1084.00000, 
1084.50000, 
1085.00000, 
1085.50000, 
1086.00000, 
1086.50000, 
1087.00000, 
1087.50000, 
1088.00000, 
1088.50000, 
1089.00000, 
1089.50000, 
1090.00000, 
1090.50000, 
1091.00000, 
1091.50000, 
1092.00000, 
1092.50000, 
1093.00000, 
1093.50000, 
1094.00000, 
1094.50000, 
1095.00000, 
1095.50000, 
1096.00000, 
1096.50000, 
1097.00000, 
1097.50000, 
1098.00000, 
1098.50000, 
1099.00000, 
1099.50000, 
1100.00000, 
