"0 Strain - RawData"
"Wavelength nm.","Abs."
300.00000,-4.000000
300.50000, 
301.00000,-4.000000
301.50000, 
302.00000,-4.000000
302.50000, 
303.00000,-4.000000
303.50000, 
304.00000,-3.993652
304.50000, 
305.00000,-4.000000
305.50000, 
306.00000,-4.000000
306.50000, 
307.00000,-4.000000
307.50000, 
308.00000,-4.000000
308.50000, 
309.00000,-4.000000
309.50000, 
310.00000,-4.000000
310.50000, 
311.00000,-4.000000
311.50000, 
312.00000,-4.000000
312.50000, 
313.00000,-4.000000
313.50000, 
314.00000,-4.000000
314.50000, 
315.00000,-4.000000
315.50000, 
316.00000,-4.000000
316.50000, 
317.00000,-4.000000
317.50000, 
318.00000,-4.000000
318.50000, 
319.00000,-4.000000
319.50000, 
320.00000,-4.000000
320.50000, 
321.00000,-4.000000
321.50000, 
322.00000,-4.000000
322.50000, 
323.00000,-4.000000
323.50000, 
324.00000,-4.000000
324.50000, 
325.00000,-4.000000
325.50000, 
326.00000,-4.000000
326.50000, 
327.00000,-3.986084
327.50000, 
328.00000,-3.933853
328.50000, 
329.00000,-4.000000
329.50000, 
330.00000,-4.000000
330.50000, 
331.00000,-4.000000
331.50000, 
332.00000,-4.000000
332.50000, 
333.00000,-4.000000
333.50000, 
334.00000,-4.000000
334.50000, 
335.00000,-4.000000
335.50000, 
336.00000,-4.000000
336.50000, 
337.00000,-4.000000
337.50000, 
338.00000,-4.000000
338.50000, 
339.00000,-4.000000
339.50000, 
340.00000,-4.000000
340.50000, 
341.00000,-4.000000
341.50000, 
342.00000,-4.000000
342.50000, 
343.00000,-4.000000
343.50000, 
344.00000,-3.999817
344.50000, 
345.00000,-3.958817
345.50000, 
346.00000,-4.000000
346.50000, 
347.00000,-4.000000
347.50000, 
348.00000,-4.000000
348.50000, 
349.00000,-4.000000
349.50000, 
350.00000,-4.000000
350.50000, 
351.00000,-4.000000
351.50000, 
352.00000,-4.000000
352.50000, 
353.00000,-4.000000
353.50000, 
354.00000,-4.000000
354.50000, 
355.00000,-4.000000
355.50000, 
356.00000,-4.000000
356.50000, 
357.00000,-4.000000
357.50000, 
358.00000,-3.990540
358.50000, 
359.00000,-4.000000
359.50000, 
360.00000,-4.000000
360.50000, 
361.00000,-4.000000
361.50000, 
362.00000,-4.000000
362.50000, 
363.00000,-3.995270
363.50000, 
364.00000,-4.000000
364.50000, 
365.00000,-3.988571
365.50000, 
366.00000,-3.816956
366.50000, 
367.00000,-3.999908
367.50000, 
368.00000,-3.888321
368.50000, 
369.00000,-3.397537
369.50000, 
370.00000,-3.632706
370.50000, 
371.00000,-3.615723
371.50000, 
372.00000,-3.974106
372.50000, 
373.00000,-3.741104
373.50000, 
374.00000,-3.981094
374.50000, 
375.00000,-4.000000
375.50000, 
376.00000,-3.988434
376.50000, 
377.00000,-3.937363
377.50000, 
378.00000,-3.544724
378.50000, 
379.00000,-3.413406
379.50000, 
380.00000,-3.364838
380.50000, 
381.00000,-3.122665
381.50000, 
382.00000,-2.864014
382.50000, 
383.00000,-2.659775
383.50000, 
384.00000,-2.430435
384.50000, 
385.00000,-2.210571
385.50000, 
386.00000,-2.016052
386.50000, 
387.00000,-1.829544
387.50000, 
388.00000,-1.653397
388.50000, 
389.00000,-1.501343
389.50000, 
390.00000,-1.365265
390.50000, 
391.00000,-1.242706
391.50000, 
392.00000,-1.137299
392.50000, 
393.00000,-1.045334
393.50000, 
394.00000,-0.963699
394.50000, 
395.00000,-0.896606
395.50000, 
396.00000,-0.838104
396.50000, 
397.00000,-0.789124
397.50000, 
398.00000,-0.749893
398.50000, 
399.00000,-0.715744
399.50000, 
400.00000,-0.686142
400.50000, 
401.00000,-0.659882
401.50000, 
402.00000,-0.635391
402.50000, 
403.00000,-0.613358
403.50000, 
404.00000,-0.592072
404.50000, 
405.00000,-0.572906
405.50000, 
406.00000,-0.555435
406.50000, 
407.00000,-0.538712
407.50000, 
408.00000,-0.523926
408.50000, 
409.00000,-0.510849
409.50000, 
410.00000,-0.498291
410.50000, 
411.00000,-0.488068
411.50000, 
412.00000,-0.479324
412.50000, 
413.00000,-0.471268
413.50000, 
414.00000,-0.463867
414.50000, 
415.00000,-0.456894
415.50000, 
416.00000,-0.449234
416.50000, 
417.00000,-0.442245
417.50000, 
418.00000,-0.436935
418.50000, 
419.00000,-0.432404
419.50000, 
420.00000,-0.428162
420.50000, 
421.00000,-0.424286
421.50000, 
422.00000,-0.420639
422.50000, 
423.00000,-0.417358
423.50000, 
424.00000,-0.414215
424.50000, 
425.00000,-0.411011
425.50000, 
426.00000,-0.408096
426.50000, 
427.00000,-0.405365
427.50000, 
428.00000,-0.402588
428.50000, 
429.00000,-0.399979
429.50000, 
430.00000,-0.397522
430.50000, 
431.00000,-0.395081
431.50000, 
432.00000,-0.392792
432.50000, 
433.00000,-0.390656
433.50000, 
434.00000,-0.388641
434.50000, 
435.00000,-0.386673
435.50000, 
436.00000,-0.384705
436.50000, 
437.00000,-0.382767
437.50000, 
438.00000,-0.381042
438.50000, 
439.00000,-0.379196
439.50000, 
440.00000,-0.377518
440.50000, 
441.00000,-0.375854
441.50000, 
442.00000,-0.374283
442.50000, 
443.00000,-0.372696
443.50000, 
444.00000,-0.371048
444.50000, 
445.00000,-0.369522
445.50000, 
446.00000,-0.368027
446.50000, 
447.00000,-0.366486
447.50000, 
448.00000,-0.364929
448.50000, 
449.00000,-0.363495
449.50000, 
450.00000,-0.362137
450.50000, 
451.00000,-0.360748
451.50000, 
452.00000,-0.359406
452.50000, 
453.00000,-0.358017
453.50000, 
454.00000,-0.356506
454.50000, 
455.00000,-0.354996
455.50000, 
456.00000,-0.353668
456.50000, 
457.00000,-0.352234
457.50000, 
458.00000,-0.350830
458.50000, 
459.00000,-0.349564
459.50000, 
460.00000,-0.348190
460.50000, 
461.00000,-0.346680
461.50000, 
462.00000,-0.345291
462.50000, 
463.00000,-0.343765
463.50000, 
464.00000,-0.342178
464.50000, 
465.00000,-0.340698
465.50000, 
466.00000,-0.339035
466.50000, 
467.00000,-0.337402
467.50000, 
468.00000,-0.335449
468.50000, 
469.00000,-0.333389
469.50000, 
470.00000,-0.331100
470.50000, 
471.00000,-0.328140
471.50000, 
472.00000,-0.323990
472.50000, 
473.00000,-0.318405
473.50000, 
474.00000,-0.314072
474.50000, 
475.00000,-0.314285
475.50000, 
476.00000,-0.316055
476.50000, 
477.00000,-0.318771
477.50000, 
478.00000,-0.322357
478.50000, 
479.00000,-0.327087
479.50000, 
480.00000,-0.332932
480.50000, 
481.00000,-0.340256
481.50000, 
482.00000,-0.348907
482.50000, 
483.00000,-0.359177
483.50000, 
484.00000,-0.371521
484.50000, 
485.00000,-0.385574
485.50000, 
486.00000,-0.401047
486.50000, 
487.00000,-0.418030
487.50000, 
488.00000,-0.435043
488.50000, 
489.00000,-0.451462
489.50000, 
490.00000,-0.466721
490.50000, 
491.00000,-0.479965
491.50000, 
492.00000,-0.490265
492.50000, 
493.00000,-0.497696
493.50000, 
494.00000,-0.502060
494.50000, 
495.00000,-0.503204
495.50000, 
496.00000,-0.501984
496.50000, 
497.00000,-0.498779
497.50000, 
498.00000,-0.494049
498.50000, 
499.00000,-0.488480
499.50000, 
500.00000,-0.482422
500.50000, 
501.00000,-0.475723
501.50000, 
502.00000,-0.468735
502.50000, 
503.00000,-0.462051
503.50000, 
504.00000,-0.455704
504.50000, 
505.00000,-0.449432
505.50000, 
506.00000,-0.443436
506.50000, 
507.00000,-0.438202
507.50000, 
508.00000,-0.433044
508.50000, 
509.00000,-0.428375
509.50000, 
510.00000,-0.423950
510.50000, 
511.00000,-0.420120
511.50000, 
512.00000,-0.416626
512.50000, 
513.00000,-0.413223
513.50000, 
514.00000,-0.410370
514.50000, 
515.00000,-0.407654
515.50000, 
516.00000,-0.405167
516.50000, 
517.00000,-0.403046
517.50000, 
518.00000,-0.401016
518.50000, 
519.00000,-0.399139
519.50000, 
520.00000,-0.397537
520.50000, 
521.00000,-0.396042
521.50000, 
522.00000,-0.394730
522.50000, 
523.00000,-0.393478
523.50000, 
524.00000,-0.392487
524.50000, 
525.00000,-0.391586
525.50000, 
526.00000,-0.390732
526.50000, 
527.00000,-0.389954
527.50000, 
528.00000,-0.389160
528.50000, 
529.00000,-0.388596
529.50000, 
530.00000,-0.388138
530.50000, 
531.00000,-0.387756
531.50000, 
532.00000,-0.387436
532.50000, 
533.00000,-0.387177
533.50000, 
534.00000,-0.387054
534.50000, 
535.00000,-0.387100
535.50000, 
536.00000,-0.387711
536.50000, 
537.00000,-0.388138
537.50000, 
538.00000,-0.388214
538.50000, 
539.00000,-0.388321
539.50000, 
540.00000,-0.388351
540.50000, 
541.00000,-0.388626
541.50000, 
542.00000,-0.388855
542.50000, 
543.00000,-0.389023
543.50000, 
544.00000,-0.389343
544.50000, 
545.00000,-0.389709
545.50000, 
546.00000,-0.390198
546.50000, 
547.00000,-0.390610
547.50000, 
548.00000,-0.390976
548.50000, 
549.00000,-0.391312
549.50000, 
550.00000,-0.391861
550.50000, 
551.00000,-0.392487
551.50000, 
552.00000,-0.393036
552.50000, 
553.00000,-0.393661
553.50000, 
554.00000,-0.394287
554.50000, 
555.00000,-0.394943
555.50000, 
556.00000,-0.395676
556.50000, 
557.00000,-0.396484
557.50000, 
558.00000,-0.397263
558.50000, 
559.00000,-0.398117
559.50000, 
560.00000,-0.398895
560.50000, 
561.00000,-0.399780
561.50000, 
562.00000,-0.400650
562.50000, 
563.00000,-0.401596
563.50000, 
564.00000,-0.402512
564.50000, 
565.00000,-0.403458
565.50000, 
566.00000,-0.404343
566.50000, 
567.00000,-0.405350
567.50000, 
568.00000,-0.406296
568.50000, 
569.00000,-0.407272
569.50000, 
570.00000,-0.408295
570.50000, 
571.00000,-0.409302
571.50000, 
572.00000,-0.410385
572.50000, 
573.00000,-0.411407
573.50000, 
574.00000,-0.412491
574.50000, 
575.00000,-0.413651
575.50000, 
576.00000,-0.414688
576.50000, 
577.00000,-0.415787
577.50000, 
578.00000,-0.416824
578.50000, 
579.00000,-0.417892
579.50000, 
580.00000,-0.418884
580.50000, 
581.00000,-0.419998
581.50000, 
582.00000,-0.420990
582.50000, 
583.00000,-0.421951
583.50000, 
584.00000,-0.422974
584.50000, 
585.00000,-0.424072
585.50000, 
586.00000,-0.425201
586.50000, 
587.00000,-0.426132
587.50000, 
588.00000,-0.427170
588.50000, 
589.00000,-0.428116
589.50000, 
590.00000,-0.429016
590.50000, 
591.00000,-0.429962
591.50000, 
592.00000,-0.430756
592.50000, 
593.00000,-0.431717
593.50000, 
594.00000,-0.432648
594.50000, 
595.00000,-0.433609
595.50000, 
596.00000,-0.434402
596.50000, 
597.00000,-0.435425
597.50000, 
598.00000,-0.436264
598.50000, 
599.00000,-0.437180
599.50000, 
600.00000,-0.438156
600.50000, 
601.00000,-0.439026
601.50000, 
602.00000,-0.440079
602.50000, 
603.00000,-0.441132
603.50000, 
604.00000,-0.442169
604.50000, 
605.00000,-0.443115
605.50000, 
606.00000,-0.444077
606.50000, 
607.00000,-0.445267
607.50000, 
608.00000,-0.446350
608.50000, 
609.00000,-0.447388
609.50000, 
610.00000,-0.448334
610.50000, 
611.00000,-0.449493
611.50000, 
612.00000,-0.450485
612.50000, 
613.00000,-0.451614
613.50000, 
614.00000,-0.452652
614.50000, 
615.00000,-0.453766
615.50000, 
616.00000,-0.454987
616.50000, 
617.00000,-0.456085
617.50000, 
618.00000,-0.457108
618.50000, 
619.00000,-0.458206
619.50000, 
620.00000,-0.459290
620.50000, 
621.00000,-0.460266
621.50000, 
622.00000,-0.461334
622.50000, 
623.00000,-0.462341
623.50000, 
624.00000,-0.463226
624.50000, 
625.00000,-0.464066
625.50000, 
626.00000,-0.464828
626.50000, 
627.00000,-0.465302
627.50000, 
628.00000,-0.465652
628.50000, 
629.00000,-0.465805
629.50000, 
630.00000,-0.465485
630.50000, 
631.00000,-0.464691
631.50000, 
632.00000,-0.462799
632.50000, 
633.00000,-0.458771
633.50000, 
634.00000,-0.451828
634.50000, 
635.00000,-0.449677
635.50000, 
636.00000,-0.462372
636.50000, 
637.00000,-0.481216
637.50000, 
638.00000,-0.503601
638.50000, 
639.00000,-0.531296
639.50000, 
640.00000,-0.563034
640.50000, 
641.00000,-0.597702
641.50000, 
642.00000,-0.634628
642.50000, 
643.00000,-0.670471
643.50000, 
644.00000,-0.702942
644.50000, 
645.00000,-0.728882
645.50000, 
646.00000,-0.746429
646.50000, 
647.00000,-0.755035
647.50000, 
648.00000,-0.755020
648.50000, 
649.00000,-0.748611
649.50000, 
650.00000,-0.737610
650.50000, 
651.00000,-0.723953
651.50000, 
652.00000,-0.709137
652.50000, 
653.00000,-0.694427
653.50000, 
654.00000,-0.680283
654.50000, 
655.00000,-0.666977
655.50000, 
656.00000,-0.654907
656.50000, 
657.00000,-0.643738
657.50000, 
658.00000,-0.633865
658.50000, 
659.00000,-0.624649
659.50000, 
660.00000,-0.615982
660.50000, 
661.00000,-0.608276
661.50000, 
662.00000,-0.601379
662.50000, 
663.00000,-0.594955
663.50000, 
664.00000,-0.589142
664.50000, 
665.00000,-0.583817
665.50000, 
666.00000,-0.578964
666.50000, 
667.00000,-0.574600
667.50000, 
668.00000,-0.570358
668.50000, 
669.00000,-0.566315
669.50000, 
670.00000,-0.562805
670.50000, 
671.00000,-0.559357
671.50000, 
672.00000,-0.555954
672.50000, 
673.00000,-0.553009
673.50000, 
674.00000,-0.550232
674.50000, 
675.00000,-0.547638
675.50000, 
676.00000,-0.545181
676.50000, 
677.00000,-0.542892
677.50000, 
678.00000,-0.540726
678.50000, 
679.00000,-0.538742
679.50000, 
680.00000,-0.536743
680.50000, 
681.00000,-0.534973
681.50000, 
682.00000,-0.533157
682.50000, 
683.00000,-0.531509
683.50000, 
684.00000,-0.529892
684.50000, 
685.00000,-0.528549
685.50000, 
686.00000,-0.526993
686.50000, 
687.00000,-0.525803
687.50000, 
688.00000,-0.524475
688.50000, 
689.00000,-0.523193
689.50000, 
690.00000,-0.522079
690.50000, 
691.00000,-0.521088
691.50000, 
692.00000,-0.519867
692.50000, 
693.00000,-0.518829
693.50000, 
694.00000,-0.517807
694.50000, 
695.00000,-0.516724
695.50000, 
696.00000,-0.515884
696.50000, 
697.00000,-0.514938
697.50000, 
698.00000,-0.514038
698.50000, 
699.00000,-0.513077
699.50000, 
700.00000,-0.512421
700.50000, 
701.00000,-0.511566
701.50000, 
702.00000,-0.510712
702.50000, 
703.00000,-0.509933
703.50000, 
704.00000,-0.509201
704.50000, 
705.00000,-0.508484
705.50000, 
706.00000,-0.507935
706.50000, 
707.00000,-0.507172
707.50000, 
708.00000,-0.506668
708.50000, 
709.00000,-0.505997
709.50000, 
710.00000,-0.505341
710.50000, 
711.00000,-0.504868
711.50000, 
712.00000,-0.504303
712.50000, 
713.00000,-0.503677
713.50000, 
714.00000,-0.503143
714.50000, 
715.00000,-0.502563
715.50000, 
716.00000,-0.501999
716.50000, 
717.00000,-0.501648
717.50000, 
718.00000,-0.501160
718.50000, 
719.00000,-0.500809
719.50000, 
720.00000,-0.500305
720.50000, 
721.00000,-0.499695
721.50000, 
722.00000,-0.499344
722.50000, 
723.00000,-0.498856
723.50000, 
724.00000,-0.498428
724.50000, 
725.00000,-0.498062
725.50000, 
726.00000,-0.497559
726.50000, 
727.00000,-0.497238
727.50000, 
728.00000,-0.496918
728.50000, 
729.00000,-0.496445
729.50000, 
730.00000,-0.496124
730.50000, 
731.00000,-0.495789
731.50000, 
732.00000,-0.495514
732.50000, 
733.00000,-0.495316
733.50000, 
734.00000,-0.494873
734.50000, 
735.00000,-0.494598
735.50000, 
736.00000,-0.494278
736.50000, 
737.00000,-0.493912
737.50000, 
738.00000,-0.493759
738.50000, 
739.00000,-0.493408
739.50000, 
740.00000,-0.493149
740.50000, 
741.00000,-0.492828
741.50000, 
742.00000,-0.492523
742.50000, 
743.00000,-0.492355
743.50000, 
744.00000,-0.492020
744.50000, 
745.00000,-0.491989
745.50000, 
746.00000,-0.491653
746.50000, 
747.00000,-0.491577
747.50000, 
748.00000,-0.491516
748.50000, 
749.00000,-0.491211
749.50000, 
750.00000,-0.491104
750.50000, 
751.00000,-0.490982
751.50000, 
752.00000,-0.490906
752.50000, 
753.00000,-0.490707
753.50000, 
754.00000,-0.490494
754.50000, 
755.00000,-0.490372
755.50000, 
756.00000,-0.490158
756.50000, 
757.00000,-0.490173
757.50000, 
758.00000,-0.490005
758.50000, 
759.00000,-0.489914
759.50000, 
760.00000,-0.489746
760.50000, 
761.00000,-0.489685
761.50000, 
762.00000,-0.489532
762.50000, 
763.00000,-0.489655
763.50000, 
764.00000,-0.489273
764.50000, 
765.00000,-0.489365
765.50000, 
766.00000,-0.489349
766.50000, 
767.00000,-0.489151
767.50000, 
768.00000,-0.489197
768.50000, 
769.00000,-0.488968
769.50000, 
770.00000,-0.489059
770.50000, 
771.00000,-0.488937
771.50000, 
772.00000,-0.488892
772.50000, 
773.00000,-0.488876
773.50000, 
774.00000,-0.488770
774.50000, 
775.00000,-0.488785
775.50000, 
776.00000,-0.488800
776.50000, 
777.00000,-0.488724
777.50000, 
778.00000,-0.488739
778.50000, 
779.00000,-0.488586
779.50000, 
780.00000,-0.488235
780.50000, 
781.00000,-0.488327
781.50000, 
782.00000,-0.487930
782.50000, 
783.00000,-0.487991
783.50000, 
784.00000,-0.487823
784.50000, 
785.00000,-0.487610
785.50000, 
786.00000,-0.487411
786.50000, 
787.00000,-0.487259
787.50000, 
788.00000,-0.486771
788.50000, 
789.00000,-0.486771
789.50000, 
790.00000,-0.486176
790.50000, 
791.00000,-0.485840
791.50000, 
792.00000,-0.485306
792.50000, 
793.00000,-0.484604
793.50000, 
794.00000,-0.484100
794.50000, 
795.00000,-0.483444
795.50000, 
796.00000,-0.482803
796.50000, 
797.00000,-0.482254
797.50000, 
798.00000,-0.481308
798.50000, 
799.00000,-0.480179
799.50000, 
800.00000,-0.479279
800.50000, 
801.00000,-0.477844
801.50000, 
802.00000,-0.476730
802.50000, 
803.00000,-0.475769
803.50000, 
804.00000,-0.474258
804.50000, 
805.00000,-0.472778
805.50000, 
806.00000,-0.471176
806.50000, 
807.00000,-0.469376
807.50000, 
808.00000,-0.467636
808.50000, 
809.00000,-0.465912
809.50000, 
810.00000,-0.463531
810.50000, 
811.00000,-0.461487
811.50000, 
812.00000,-0.458908
812.50000, 
813.00000,-0.456207
813.50000, 
814.00000,-0.453613
814.50000, 
815.00000,-0.450912
815.50000, 
816.00000,-0.447937
816.50000, 
817.00000,-0.445129
817.50000, 
818.00000,-0.441391
818.50000, 
819.00000,-0.437958
819.50000, 
820.00000,-0.434586
820.50000, 
821.00000,-0.430939
821.50000, 
822.00000,-0.427216
822.50000, 
823.00000,-0.423752
823.50000, 
824.00000,-0.419327
824.50000, 
825.00000,-0.415253
825.50000, 
826.00000,-0.411301
826.50000, 
827.00000,-0.407013
827.50000, 
828.00000,-0.402222
828.50000, 
829.00000,-0.397766
829.50000, 
830.00000,-0.392975
830.50000, 
831.00000,-0.388245
831.50000, 
832.00000,-0.383698
832.50000, 
833.00000,-0.378250
833.50000, 
834.00000,-0.372955
834.50000, 
835.00000,-0.367706
835.50000, 
836.00000,-0.362320
836.50000, 
837.00000,-0.356781
837.50000, 
838.00000,-0.351654
838.50000, 
839.00000,-0.345505
839.50000, 
840.00000,-0.340042
840.50000, 
841.00000,-0.334976
841.50000, 
842.00000,-0.329285
842.50000, 
843.00000,-0.323273
843.50000, 
844.00000,-0.317749
844.50000, 
845.00000,-0.311951
845.50000, 
846.00000,-0.306198
846.50000, 
847.00000,-0.301132
847.50000, 
848.00000,-0.295120
848.50000, 
849.00000,-0.289413
849.50000, 
850.00000,-0.284271
850.50000, 
851.00000,-0.278809
851.50000, 
852.00000,-0.272659
852.50000, 
853.00000,-0.267288
853.50000, 
854.00000,-0.262085
854.50000, 
855.00000,-0.255875
855.50000, 
856.00000,-0.250259
856.50000, 
857.00000,-0.244766
857.50000, 
858.00000,-0.238953
858.50000, 
859.00000,-0.233292
859.50000, 
860.00000,-0.228210
860.50000, 
861.00000,-0.222412
861.50000, 
862.00000,-0.216858
862.50000, 
863.00000,-0.211868
863.50000, 
864.00000,-0.206345
864.50000, 
865.00000,-0.200836
865.50000, 
866.00000,-0.196121
866.50000, 
867.00000,-0.191681
867.50000, 
868.00000,-0.186234
868.50000, 
869.00000,-0.181549
869.50000, 
870.00000,-0.177170
870.50000, 
871.00000,-0.172089
871.50000, 
872.00000,-0.167252
872.50000, 
873.00000,-0.163040
873.50000, 
874.00000,-0.158676
874.50000, 
875.00000,-0.153732
875.50000, 
876.00000,-0.149765
876.50000, 
877.00000,-0.145538
877.50000, 
878.00000,-0.140640
878.50000, 
879.00000,-0.136627
879.50000, 
880.00000,-0.132767
880.50000, 
881.00000,-0.128418
881.50000, 
882.00000,-0.124268
882.50000, 
883.00000,-0.120804
883.50000, 
884.00000,-0.116867
884.50000, 
885.00000,-0.112778
885.50000, 
886.00000,-0.109543
886.50000, 
887.00000,-0.106293
887.50000, 
888.00000,-0.102127
888.50000, 
889.00000,-0.098801
889.50000, 
890.00000,-0.096130
890.50000, 
891.00000,-0.092651
891.50000, 
892.00000,-0.089066
892.50000, 
893.00000,-0.086380
893.50000, 
894.00000,-0.083481
894.50000, 
895.00000,-0.079865
895.50000, 
896.00000,-0.076935
896.50000, 
897.00000,-0.074600
897.50000, 
898.00000,-0.071136
898.50000, 
899.00000,-0.068069
899.50000, 
900.00000,-0.066467
900.50000, 
901.00000, 
901.50000, 
902.00000, 
902.50000, 
903.00000, 
903.50000, 
904.00000, 
904.50000, 
905.00000, 
905.50000, 
906.00000, 
906.50000, 
907.00000, 
907.50000, 
908.00000, 
908.50000, 
909.00000, 
909.50000, 
910.00000, 
910.50000, 
911.00000, 
911.50000, 
912.00000, 
912.50000, 
913.00000, 
913.50000, 
914.00000, 
914.50000, 
915.00000, 
915.50000, 
916.00000, 
916.50000, 
917.00000, 
917.50000, 
918.00000, 
918.50000, 
919.00000, 
919.50000, 
920.00000, 
920.50000, 
921.00000, 
921.50000, 
922.00000, 
922.50000, 
923.00000, 
923.50000, 
924.00000, 
924.50000, 
925.00000, 
925.50000, 
926.00000, 
926.50000, 
927.00000, 
927.50000, 
928.00000, 
928.50000, 
929.00000, 
929.50000, 
930.00000, 
930.50000, 
931.00000, 
931.50000, 
932.00000, 
932.50000, 
933.00000, 
933.50000, 
934.00000, 
934.50000, 
935.00000, 
935.50000, 
936.00000, 
936.50000, 
937.00000, 
937.50000, 
938.00000, 
938.50000, 
939.00000, 
939.50000, 
940.00000, 
940.50000, 
941.00000, 
941.50000, 
942.00000, 
942.50000, 
943.00000, 
943.50000, 
944.00000, 
944.50000, 
945.00000, 
945.50000, 
946.00000, 
946.50000, 
947.00000, 
947.50000, 
948.00000, 
948.50000, 
949.00000, 
949.50000, 
950.00000, 
950.50000, 
951.00000, 
951.50000, 
952.00000, 
952.50000, 
953.00000, 
953.50000, 
954.00000, 
954.50000, 
955.00000, 
955.50000, 
956.00000, 
956.50000, 
957.00000, 
957.50000, 
958.00000, 
958.50000, 
959.00000, 
959.50000, 
960.00000, 
960.50000, 
961.00000, 
961.50000, 
962.00000, 
962.50000, 
963.00000, 
963.50000, 
964.00000, 
964.50000, 
965.00000, 
965.50000, 
966.00000, 
966.50000, 
967.00000, 
967.50000, 
968.00000, 
968.50000, 
969.00000, 
969.50000, 
970.00000, 
970.50000, 
971.00000, 
971.50000, 
972.00000, 
972.50000, 
973.00000, 
973.50000, 
974.00000, 
974.50000, 
975.00000, 
975.50000, 
976.00000, 
976.50000, 
977.00000, 
977.50000, 
978.00000, 
978.50000, 
979.00000, 
979.50000, 
980.00000, 
980.50000, 
981.00000, 
981.50000, 
982.00000, 
982.50000, 
983.00000, 
983.50000, 
984.00000, 
984.50000, 
985.00000, 
985.50000, 
986.00000, 
986.50000, 
987.00000, 
987.50000, 
988.00000, 
988.50000, 
989.00000, 
989.50000, 
990.00000, 
990.50000, 
991.00000, 
991.50000, 
992.00000, 
992.50000, 
993.00000, 
993.50000, 
994.00000, 
994.50000, 
995.00000, 
995.50000, 
996.00000, 
996.50000, 
997.00000, 
997.50000, 
998.00000, 
998.50000, 
999.00000, 
999.50000, 
1000.00000, 
1000.50000, 
1001.00000, 
1001.50000, 
1002.00000, 
1002.50000, 
1003.00000, 
1003.50000, 
1004.00000, 
1004.50000, 
1005.00000, 
1005.50000, 
1006.00000, 
1006.50000, 
1007.00000, 
1007.50000, 
1008.00000, 
1008.50000, 
1009.00000, 
1009.50000, 
1010.00000, 
1010.50000, 
1011.00000, 
1011.50000, 
1012.00000, 
1012.50000, 
1013.00000, 
1013.50000, 
1014.00000, 
1014.50000, 
1015.00000, 
1015.50000, 
1016.00000, 
1016.50000, 
1017.00000, 
1017.50000, 
1018.00000, 
1018.50000, 
1019.00000, 
1019.50000, 
1020.00000, 
1020.50000, 
1021.00000, 
1021.50000, 
1022.00000, 
1022.50000, 
1023.00000, 
1023.50000, 
1024.00000, 
1024.50000, 
1025.00000, 
1025.50000, 
1026.00000, 
1026.50000, 
1027.00000, 
1027.50000, 
1028.00000, 
1028.50000, 
1029.00000, 
1029.50000, 
1030.00000, 
1030.50000, 
1031.00000, 
1031.50000, 
1032.00000, 
1032.50000, 
1033.00000, 
1033.50000, 
1034.00000, 
1034.50000, 
1035.00000, 
1035.50000, 
1036.00000, 
1036.50000, 
1037.00000, 
1037.50000, 
1038.00000, 
1038.50000, 
1039.00000, 
1039.50000, 
1040.00000, 
1040.50000, 
1041.00000, 
1041.50000, 
1042.00000, 
1042.50000, 
1043.00000, 
1043.50000, 
1044.00000, 
1044.50000, 
1045.00000, 
1045.50000, 
1046.00000, 
1046.50000, 
1047.00000, 
1047.50000, 
1048.00000, 
1048.50000, 
1049.00000, 
1049.50000, 
1050.00000, 
1050.50000, 
1051.00000, 
1051.50000, 
1052.00000, 
1052.50000, 
1053.00000, 
1053.50000, 
1054.00000, 
1054.50000, 
1055.00000, 
1055.50000, 
1056.00000, 
1056.50000, 
1057.00000, 
1057.50000, 
1058.00000, 
1058.50000, 
1059.00000, 
1059.50000, 
1060.00000, 
1060.50000, 
1061.00000, 
1061.50000, 
1062.00000, 
1062.50000, 
1063.00000, 
1063.50000, 
1064.00000, 
1064.50000, 
1065.00000, 
1065.50000, 
1066.00000, 
1066.50000, 
1067.00000, 
1067.50000, 
1068.00000, 
1068.50000, 
1069.00000, 
1069.50000, 
1070.00000, 
1070.50000, 
1071.00000, 
1071.50000, 
1072.00000, 
1072.50000, 
1073.00000, 
1073.50000, 
1074.00000, 
1074.50000, 
1075.00000, 
1075.50000, 
1076.00000, 
1076.50000, 
1077.00000, 
1077.50000, 
1078.00000, 
1078.50000, 
1079.00000, 
1079.50000, 
1080.00000, 
1080.50000, 
1081.00000, 
1081.50000, 
1082.00000, 
1082.50000, 
1083.00000, 
1083.50000, 
1084.00000, 
1084.50000, 
1085.00000, 
1085.50000, 
1086.00000, 
1086.50000, 
1087.00000, 
1087.50000, 
1088.00000, 
1088.50000, 
1089.00000, 
1089.50000, 
1090.00000, 
1090.50000, 
1091.00000, 
1091.50000, 
1092.00000, 
1092.50000, 
1093.00000, 
1093.50000, 
1094.00000, 
1094.50000, 
1095.00000, 
1095.50000, 
1096.00000, 
1096.50000, 
1097.00000, 
1097.50000, 
1098.00000, 
1098.50000, 
1099.00000, 
1099.50000, 
1100.00000, 
