"30%Tension - RawData"
"Wavelength nm.","Abs."
300.00000,-4.000000
300.50000, 
301.00000,-4.000000
301.50000, 
302.00000,-4.000000
302.50000, 
303.00000,-4.000000
303.50000, 
304.00000,-4.000000
304.50000, 
305.00000,-4.000000
305.50000, 
306.00000,-4.000000
306.50000, 
307.00000,-4.000000
307.50000, 
308.00000,-4.000000
308.50000, 
309.00000,-4.000000
309.50000, 
310.00000,-4.000000
310.50000, 
311.00000,-4.000000
311.50000, 
312.00000,-4.000000
312.50000, 
313.00000,-4.000000
313.50000, 
314.00000,-4.000000
314.50000, 
315.00000,-4.000000
315.50000, 
316.00000,-4.000000
316.50000, 
317.00000,-4.000000
317.50000, 
318.00000,-4.000000
318.50000, 
319.00000,-4.000000
319.50000, 
320.00000,-4.000000
320.50000, 
321.00000,-4.000000
321.50000, 
322.00000,-4.000000
322.50000, 
323.00000,-4.000000
323.50000, 
324.00000,-4.000000
324.50000, 
325.00000,-4.000000
325.50000, 
326.00000,-4.000000
326.50000, 
327.00000,-4.000000
327.50000, 
328.00000,-3.986145
328.50000, 
329.00000,-4.000000
329.50000, 
330.00000,-4.000000
330.50000, 
331.00000,-4.000000
331.50000, 
332.00000,-4.000000
332.50000, 
333.00000,-4.000000
333.50000, 
334.00000,-4.000000
334.50000, 
335.00000,-4.000000
335.50000, 
336.00000,-4.000000
336.50000, 
337.00000,-4.000000
337.50000, 
338.00000,-4.000000
338.50000, 
339.00000,-4.000000
339.50000, 
340.00000,-4.000000
340.50000, 
341.00000,-4.000000
341.50000, 
342.00000,-4.000000
342.50000, 
343.00000,-4.000000
343.50000, 
344.00000,-4.000000
344.50000, 
345.00000,-3.995224
345.50000, 
346.00000,-4.000000
346.50000, 
347.00000,-4.000000
347.50000, 
348.00000,-4.000000
348.50000, 
349.00000,-4.000000
349.50000, 
350.00000,-4.000000
350.50000, 
351.00000,-4.000000
351.50000, 
352.00000,-4.000000
352.50000, 
353.00000,-4.000000
353.50000, 
354.00000,-4.000000
354.50000, 
355.00000,-4.000000
355.50000, 
356.00000,-4.000000
356.50000, 
357.00000,-4.000000
357.50000, 
358.00000,-4.000000
358.50000, 
359.00000,-4.000000
359.50000, 
360.00000,-4.000000
360.50000, 
361.00000,-4.000000
361.50000, 
362.00000,-4.000000
362.50000, 
363.00000,-4.000000
363.50000, 
364.00000,-4.000000
364.50000, 
365.00000,-3.999023
365.50000, 
366.00000,-3.892532
366.50000, 
367.00000,-4.000000
367.50000, 
368.00000,-3.917847
368.50000, 
369.00000,-3.478760
369.50000, 
370.00000,-3.713806
370.50000, 
371.00000,-3.696762
371.50000, 
372.00000,-3.992554
372.50000, 
373.00000,-3.822144
373.50000, 
374.00000,-3.994888
374.50000, 
375.00000,-4.000000
375.50000, 
376.00000,-4.000000
376.50000, 
377.00000,-3.965256
377.50000, 
378.00000,-3.625320
378.50000, 
379.00000,-3.494110
379.50000, 
380.00000,-3.445633
380.50000, 
381.00000,-3.203339
381.50000, 
382.00000,-2.944687
382.50000, 
383.00000,-2.740479
383.50000, 
384.00000,-2.511093
384.50000, 
385.00000,-2.291260
385.50000, 
386.00000,-2.096573
386.50000, 
387.00000,-1.910019
387.50000, 
388.00000,-1.733795
388.50000, 
389.00000,-1.581635
389.50000, 
390.00000,-1.445526
390.50000, 
391.00000,-1.322906
391.50000, 
392.00000,-1.217499
392.50000, 
393.00000,-1.125488
393.50000, 
394.00000,-1.043732
394.50000, 
395.00000,-0.976608
395.50000, 
396.00000,-0.918167
396.50000, 
397.00000,-0.869125
397.50000, 
398.00000,-0.830002
398.50000, 
399.00000,-0.795914
399.50000, 
400.00000,-0.766388
400.50000, 
401.00000,-0.740173
401.50000, 
402.00000,-0.715805
402.50000, 
403.00000,-0.693863
403.50000, 
404.00000,-0.672577
404.50000, 
405.00000,-0.653290
405.50000, 
406.00000,-0.635696
406.50000, 
407.00000,-0.618927
407.50000, 
408.00000,-0.604065
408.50000, 
409.00000,-0.590958
409.50000, 
410.00000,-0.578506
410.50000, 
411.00000,-0.568283
411.50000, 
412.00000,-0.559402
412.50000, 
413.00000,-0.551254
413.50000, 
414.00000,-0.543839
414.50000, 
415.00000,-0.536865
415.50000, 
416.00000,-0.530975
416.50000, 
417.00000,-0.525925
417.50000, 
418.00000,-0.520615
418.50000, 
419.00000,-0.515991
419.50000, 
420.00000,-0.511841
420.50000, 
421.00000,-0.507950
421.50000, 
422.00000,-0.504196
422.50000, 
423.00000,-0.500916
423.50000, 
424.00000,-0.497787
424.50000, 
425.00000,-0.494522
425.50000, 
426.00000,-0.491608
426.50000, 
427.00000,-0.488861
427.50000, 
428.00000,-0.486084
428.50000, 
429.00000,-0.483475
429.50000, 
430.00000,-0.481033
430.50000, 
431.00000,-0.478607
431.50000, 
432.00000,-0.476379
432.50000, 
433.00000,-0.474213
433.50000, 
434.00000,-0.472153
434.50000, 
435.00000,-0.470169
435.50000, 
436.00000,-0.468307
436.50000, 
437.00000,-0.466385
437.50000, 
438.00000,-0.464554
438.50000, 
439.00000,-0.462708
439.50000, 
440.00000,-0.461044
440.50000, 
441.00000,-0.459442
441.50000, 
442.00000,-0.457840
442.50000, 
443.00000,-0.456329
443.50000, 
444.00000,-0.454712
444.50000, 
445.00000,-0.453110
445.50000, 
446.00000,-0.451630
446.50000, 
447.00000,-0.450150
447.50000, 
448.00000,-0.448654
448.50000, 
449.00000,-0.447205
449.50000, 
450.00000,-0.445953
450.50000, 
451.00000,-0.444595
451.50000, 
452.00000,-0.443100
452.50000, 
453.00000,-0.441711
453.50000, 
454.00000,-0.440323
454.50000, 
455.00000,-0.438919
455.50000, 
456.00000,-0.437561
456.50000, 
457.00000,-0.436127
457.50000, 
458.00000,-0.434784
458.50000, 
459.00000,-0.433380
459.50000, 
460.00000,-0.431992
460.50000, 
461.00000,-0.430557
461.50000, 
462.00000,-0.429276
462.50000, 
463.00000,-0.427887
463.50000, 
464.00000,-0.426331
464.50000, 
465.00000,-0.424881
465.50000, 
466.00000,-0.423218
466.50000, 
467.00000,-0.421616
467.50000, 
468.00000,-0.419739
468.50000, 
469.00000,-0.417786
469.50000, 
470.00000,-0.415421
470.50000, 
471.00000,-0.412476
471.50000, 
472.00000,-0.408371
472.50000, 
473.00000,-0.402740
473.50000, 
474.00000,-0.398514
474.50000, 
475.00000,-0.398773
475.50000, 
476.00000,-0.400558
476.50000, 
477.00000,-0.403290
477.50000, 
478.00000,-0.406769
478.50000, 
479.00000,-0.411499
479.50000, 
480.00000,-0.417313
480.50000, 
481.00000,-0.424698
481.50000, 
482.00000,-0.433334
482.50000, 
483.00000,-0.443680
483.50000, 
484.00000,-0.456131
484.50000, 
485.00000,-0.470291
485.50000, 
486.00000,-0.485870
486.50000, 
487.00000,-0.503052
487.50000, 
488.00000,-0.520264
488.50000, 
489.00000,-0.536713
489.50000, 
490.00000,-0.551865
490.50000, 
491.00000,-0.565018
491.50000, 
492.00000,-0.575287
492.50000, 
493.00000,-0.582703
493.50000, 
494.00000,-0.586960
494.50000, 
495.00000,-0.588013
495.50000, 
496.00000,-0.586609
496.50000, 
497.00000,-0.583221
497.50000, 
498.00000,-0.578354
498.50000, 
499.00000,-0.572723
499.50000, 
500.00000,-0.566574
500.50000, 
501.00000,-0.559891
501.50000, 
502.00000,-0.552902
502.50000, 
503.00000,-0.546219
503.50000, 
504.00000,-0.539886
504.50000, 
505.00000,-0.533661
505.50000, 
506.00000,-0.527679
506.50000, 
507.00000,-0.522339
507.50000, 
508.00000,-0.517212
508.50000, 
509.00000,-0.512604
509.50000, 
510.00000,-0.508163
510.50000, 
511.00000,-0.504379
511.50000, 
512.00000,-0.500824
512.50000, 
513.00000,-0.497513
513.50000, 
514.00000,-0.494659
514.50000, 
515.00000,-0.491989
515.50000, 
516.00000,-0.489471
516.50000, 
517.00000,-0.487335
517.50000, 
518.00000,-0.485291
518.50000, 
519.00000,-0.483383
519.50000, 
520.00000,-0.481735
520.50000, 
521.00000,-0.480194
521.50000, 
522.00000,-0.478882
522.50000, 
523.00000,-0.477707
523.50000, 
524.00000,-0.476639
524.50000, 
525.00000,-0.475632
525.50000, 
526.00000,-0.474731
526.50000, 
527.00000,-0.473953
527.50000, 
528.00000,-0.473221
528.50000, 
529.00000,-0.472656
529.50000, 
530.00000,-0.472076
530.50000, 
531.00000,-0.471588
531.50000, 
532.00000,-0.471329
532.50000, 
533.00000,-0.471100
533.50000, 
534.00000,-0.470886
534.50000, 
535.00000,-0.470810
535.50000, 
536.00000,-0.470459
536.50000, 
537.00000,-0.469849
537.50000, 
538.00000,-0.469879
538.50000, 
539.00000,-0.469925
539.50000, 
540.00000,-0.469986
540.50000, 
541.00000,-0.470215
541.50000, 
542.00000,-0.470428
542.50000, 
543.00000,-0.470612
543.50000, 
544.00000,-0.470840
544.50000, 
545.00000,-0.471100
545.50000, 
546.00000,-0.471420
546.50000, 
547.00000,-0.471802
547.50000, 
548.00000,-0.472183
548.50000, 
549.00000,-0.472504
549.50000, 
550.00000,-0.473007
550.50000, 
551.00000,-0.473465
551.50000, 
552.00000,-0.473984
552.50000, 
553.00000,-0.474579
553.50000, 
554.00000,-0.475082
554.50000, 
555.00000,-0.475662
555.50000, 
556.00000,-0.476273
556.50000, 
557.00000,-0.477051
557.50000, 
558.00000,-0.477707
558.50000, 
559.00000,-0.478424
559.50000, 
560.00000,-0.479095
560.50000, 
561.00000,-0.479950
561.50000, 
562.00000,-0.480637
562.50000, 
563.00000,-0.481430
563.50000, 
564.00000,-0.482224
564.50000, 
565.00000,-0.483032
565.50000, 
566.00000,-0.483856
566.50000, 
567.00000,-0.484741
567.50000, 
568.00000,-0.485565
568.50000, 
569.00000,-0.486389
569.50000, 
570.00000,-0.487274
570.50000, 
571.00000,-0.488083
571.50000, 
572.00000,-0.488998
572.50000, 
573.00000,-0.489838
573.50000, 
574.00000,-0.490723
574.50000, 
575.00000,-0.491699
575.50000, 
576.00000,-0.492615
576.50000, 
577.00000,-0.493530
577.50000, 
578.00000,-0.494492
578.50000, 
579.00000,-0.495392
579.50000, 
580.00000,-0.496231
580.50000, 
581.00000,-0.497208
581.50000, 
582.00000,-0.498138
582.50000, 
583.00000,-0.498917
583.50000, 
584.00000,-0.499832
584.50000, 
585.00000,-0.500763
585.50000, 
586.00000,-0.501648
586.50000, 
587.00000,-0.502533
587.50000, 
588.00000,-0.503479
588.50000, 
589.00000,-0.504272
589.50000, 
590.00000,-0.505112
590.50000, 
591.00000,-0.505951
591.50000, 
592.00000,-0.506668
592.50000, 
593.00000,-0.507523
593.50000, 
594.00000,-0.508301
594.50000, 
595.00000,-0.509155
595.50000, 
596.00000,-0.509857
596.50000, 
597.00000,-0.510727
597.50000, 
598.00000,-0.511459
598.50000, 
599.00000,-0.512329
599.50000, 
600.00000,-0.513199
600.50000, 
601.00000,-0.513916
601.50000, 
602.00000,-0.514847
602.50000, 
603.00000,-0.515732
603.50000, 
604.00000,-0.516571
604.50000, 
605.00000,-0.517487
605.50000, 
606.00000,-0.518326
606.50000, 
607.00000,-0.519272
607.50000, 
608.00000,-0.520142
608.50000, 
609.00000,-0.521103
609.50000, 
610.00000,-0.521912
610.50000, 
611.00000,-0.522888
611.50000, 
612.00000,-0.523727
612.50000, 
613.00000,-0.524612
613.50000, 
614.00000,-0.525513
614.50000, 
615.00000,-0.526474
615.50000, 
616.00000,-0.527313
616.50000, 
617.00000,-0.528198
617.50000, 
618.00000,-0.529007
618.50000, 
619.00000,-0.529846
619.50000, 
620.00000,-0.530701
620.50000, 
621.00000,-0.531479
621.50000, 
622.00000,-0.532318
622.50000, 
623.00000,-0.533081
623.50000, 
624.00000,-0.533707
624.50000, 
625.00000,-0.534241
625.50000, 
626.00000,-0.534744
626.50000, 
627.00000,-0.534988
627.50000, 
628.00000,-0.535110
628.50000, 
629.00000,-0.534943
629.50000, 
630.00000,-0.534317
630.50000, 
631.00000,-0.533279
631.50000, 
632.00000,-0.531174
632.50000, 
633.00000,-0.527054
633.50000, 
634.00000,-0.519928
634.50000, 
635.00000,-0.516876
635.50000, 
636.00000,-0.529037
636.50000, 
637.00000,-0.547607
637.50000, 
638.00000,-0.569702
638.50000, 
639.00000,-0.597198
639.50000, 
640.00000,-0.628769
640.50000, 
641.00000,-0.663467
641.50000, 
642.00000,-0.700455
642.50000, 
643.00000,-0.736481
643.50000, 
644.00000,-0.769150
644.50000, 
645.00000,-0.795212
645.50000, 
646.00000,-0.812866
646.50000, 
647.00000,-0.821457
647.50000, 
648.00000,-0.821350
648.50000, 
649.00000,-0.814651
649.50000, 
650.00000,-0.803284
650.50000, 
651.00000,-0.789398
651.50000, 
652.00000,-0.774338
652.50000, 
653.00000,-0.759460
653.50000, 
654.00000,-0.745071
654.50000, 
655.00000,-0.731567
655.50000, 
656.00000,-0.719452
656.50000, 
657.00000,-0.708038
657.50000, 
658.00000,-0.697983
658.50000, 
659.00000,-0.688675
659.50000, 
660.00000,-0.679886
660.50000, 
661.00000,-0.671982
661.50000, 
662.00000,-0.664902
662.50000, 
663.00000,-0.658310
663.50000, 
664.00000,-0.652420
664.50000, 
665.00000,-0.647018
665.50000, 
666.00000,-0.642075
666.50000, 
667.00000,-0.637527
667.50000, 
668.00000,-0.633179
668.50000, 
669.00000,-0.629089
669.50000, 
670.00000,-0.625366
670.50000, 
671.00000,-0.621887
671.50000, 
672.00000,-0.618378
672.50000, 
673.00000,-0.615311
673.50000, 
674.00000,-0.612518
674.50000, 
675.00000,-0.609787
675.50000, 
676.00000,-0.607193
676.50000, 
677.00000,-0.604767
677.50000, 
678.00000,-0.602478
678.50000, 
679.00000,-0.600372
679.50000, 
680.00000,-0.598297
680.50000, 
681.00000,-0.596481
681.50000, 
682.00000,-0.594513
682.50000, 
683.00000,-0.592773
683.50000, 
684.00000,-0.591141
684.50000, 
685.00000,-0.589661
685.50000, 
686.00000,-0.588058
686.50000, 
687.00000,-0.586716
687.50000, 
688.00000,-0.585327
688.50000, 
689.00000,-0.584030
689.50000, 
690.00000,-0.582825
690.50000, 
691.00000,-0.581665
691.50000, 
692.00000,-0.580399
692.50000, 
693.00000,-0.579285
693.50000, 
694.00000,-0.578262
694.50000, 
695.00000,-0.577118
695.50000, 
696.00000,-0.576111
696.50000, 
697.00000,-0.575119
697.50000, 
698.00000,-0.574097
698.50000, 
699.00000,-0.573074
699.50000, 
700.00000,-0.572250
700.50000, 
701.00000,-0.571304
701.50000, 
702.00000,-0.570389
702.50000, 
703.00000,-0.569565
703.50000, 
704.00000,-0.568802
704.50000, 
705.00000,-0.567932
705.50000, 
706.00000,-0.567307
706.50000, 
707.00000,-0.566513
707.50000, 
708.00000,-0.565872
708.50000, 
709.00000,-0.565140
709.50000, 
710.00000,-0.564392
710.50000, 
711.00000,-0.563828
711.50000, 
712.00000,-0.563202
712.50000, 
713.00000,-0.562531
713.50000, 
714.00000,-0.561874
714.50000, 
715.00000,-0.561249
715.50000, 
716.00000,-0.560638
716.50000, 
717.00000,-0.560242
717.50000, 
718.00000,-0.559601
718.50000, 
719.00000,-0.559052
719.50000, 
720.00000,-0.558487
720.50000, 
721.00000,-0.557846
721.50000, 
722.00000,-0.557465
722.50000, 
723.00000,-0.556931
723.50000, 
724.00000,-0.556488
724.50000, 
725.00000,-0.555969
725.50000, 
726.00000,-0.555374
726.50000, 
727.00000,-0.554916
727.50000, 
728.00000,-0.554520
728.50000, 
729.00000,-0.554016
729.50000, 
730.00000,-0.553589
730.50000, 
731.00000,-0.553192
731.50000, 
732.00000,-0.552750
732.50000, 
733.00000,-0.552475
733.50000, 
734.00000,-0.552017
734.50000, 
735.00000,-0.551727
735.50000, 
736.00000,-0.551331
736.50000, 
737.00000,-0.550858
737.50000, 
738.00000,-0.550598
738.50000, 
739.00000,-0.550201
739.50000, 
740.00000,-0.549911
740.50000, 
741.00000,-0.549515
741.50000, 
742.00000,-0.549164
742.50000, 
743.00000,-0.548874
743.50000, 
744.00000,-0.548477
744.50000, 
745.00000,-0.548340
745.50000, 
746.00000,-0.548004
746.50000, 
747.00000,-0.547852
747.50000, 
748.00000,-0.547638
748.50000, 
749.00000,-0.547302
749.50000, 
750.00000,-0.547134
750.50000, 
751.00000,-0.546860
751.50000, 
752.00000,-0.546768
752.50000, 
753.00000,-0.546524
753.50000, 
754.00000,-0.546310
754.50000, 
755.00000,-0.546097
755.50000, 
756.00000,-0.545837
756.50000, 
757.00000,-0.545761
757.50000, 
758.00000,-0.545517
758.50000, 
759.00000,-0.545364
759.50000, 
760.00000,-0.545166
760.50000, 
761.00000,-0.545029
761.50000, 
762.00000,-0.544830
762.50000, 
763.00000,-0.544891
763.50000, 
764.00000,-0.544495
764.50000, 
765.00000,-0.544418
765.50000, 
766.00000,-0.544296
766.50000, 
767.00000,-0.544083
767.50000, 
768.00000,-0.544144
768.50000, 
769.00000,-0.543793
769.50000, 
770.00000,-0.543793
770.50000, 
771.00000,-0.543655
771.50000, 
772.00000,-0.543533
772.50000, 
773.00000,-0.543457
773.50000, 
774.00000,-0.543198
774.50000, 
775.00000,-0.543121
775.50000, 
776.00000,-0.543030
776.50000, 
777.00000,-0.542892
777.50000, 
778.00000,-0.542801
778.50000, 
779.00000,-0.542618
779.50000, 
780.00000,-0.542267
780.50000, 
781.00000,-0.542297
781.50000, 
782.00000,-0.541855
782.50000, 
783.00000,-0.541824
783.50000, 
784.00000,-0.541534
784.50000, 
785.00000,-0.541351
785.50000, 
786.00000,-0.541077
786.50000, 
787.00000,-0.540833
787.50000, 
788.00000,-0.540283
788.50000, 
789.00000,-0.540131
789.50000, 
790.00000,-0.539429
790.50000, 
791.00000,-0.538971
791.50000, 
792.00000,-0.538422
792.50000, 
793.00000,-0.537704
793.50000, 
794.00000,-0.537094
794.50000, 
795.00000,-0.536407
795.50000, 
796.00000,-0.535736
796.50000, 
797.00000,-0.535110
797.50000, 
798.00000,-0.534073
798.50000, 
799.00000,-0.532852
799.50000, 
800.00000,-0.531876
800.50000, 
801.00000,-0.530426
801.50000, 
802.00000,-0.529312
802.50000, 
803.00000,-0.528198
803.50000, 
804.00000,-0.526627
804.50000, 
805.00000,-0.525085
805.50000, 
806.00000,-0.523376
806.50000, 
807.00000,-0.521500
807.50000, 
808.00000,-0.519730
808.50000, 
809.00000,-0.517944
809.50000, 
810.00000,-0.515518
810.50000, 
811.00000,-0.513367
811.50000, 
812.00000,-0.510742
812.50000, 
813.00000,-0.507843
813.50000, 
814.00000,-0.505173
814.50000, 
815.00000,-0.502472
815.50000, 
816.00000,-0.499374
816.50000, 
817.00000,-0.496521
817.50000, 
818.00000,-0.492722
818.50000, 
819.00000,-0.489151
819.50000, 
820.00000,-0.485703
820.50000, 
821.00000,-0.481934
821.50000, 
822.00000,-0.478149
822.50000, 
823.00000,-0.474670
823.50000, 
824.00000,-0.470123
824.50000, 
825.00000,-0.466034
825.50000, 
826.00000,-0.462097
826.50000, 
827.00000,-0.457718
827.50000, 
828.00000,-0.452835
828.50000, 
829.00000,-0.448288
829.50000, 
830.00000,-0.443405
830.50000, 
831.00000,-0.438583
831.50000, 
832.00000,-0.433990
832.50000, 
833.00000,-0.428482
833.50000, 
834.00000,-0.423126
834.50000, 
835.00000,-0.417831
835.50000, 
836.00000,-0.412384
836.50000, 
837.00000,-0.406738
837.50000, 
838.00000,-0.401611
838.50000, 
839.00000,-0.395355
839.50000, 
840.00000,-0.389862
840.50000, 
841.00000,-0.384659
841.50000, 
842.00000,-0.378922
842.50000, 
843.00000,-0.372849
843.50000, 
844.00000,-0.367294
844.50000, 
845.00000,-0.361420
845.50000, 
846.00000,-0.355637
846.50000, 
847.00000,-0.350433
847.50000, 
848.00000,-0.344360
848.50000, 
849.00000,-0.338531
849.50000, 
850.00000,-0.333282
850.50000, 
851.00000,-0.327881
851.50000, 
852.00000,-0.321625
852.50000, 
853.00000,-0.316147
853.50000, 
854.00000,-0.310898
854.50000, 
855.00000,-0.304642
855.50000, 
856.00000,-0.298874
856.50000, 
857.00000,-0.293350
857.50000, 
858.00000,-0.287567
858.50000, 
859.00000,-0.281815
859.50000, 
860.00000,-0.276642
860.50000, 
861.00000,-0.270782
861.50000, 
862.00000,-0.265121
862.50000, 
863.00000,-0.260117
863.50000, 
864.00000,-0.254547
864.50000, 
865.00000,-0.248932
865.50000, 
866.00000,-0.244202
866.50000, 
867.00000,-0.239578
867.50000, 
868.00000,-0.234039
868.50000, 
869.00000,-0.229294
869.50000, 
870.00000,-0.224899
870.50000, 
871.00000,-0.219727
871.50000, 
872.00000,-0.214890
872.50000, 
873.00000,-0.210648
873.50000, 
874.00000,-0.206192
874.50000, 
875.00000,-0.201294
875.50000, 
876.00000,-0.197144
876.50000, 
877.00000,-0.192841
877.50000, 
878.00000,-0.187943
878.50000, 
879.00000,-0.183838
879.50000, 
880.00000,-0.179886
880.50000, 
881.00000,-0.175400
881.50000, 
882.00000,-0.171127
882.50000, 
883.00000,-0.167648
883.50000, 
884.00000,-0.163635
884.50000, 
885.00000,-0.159470
885.50000, 
886.00000,-0.156158
886.50000, 
887.00000,-0.152863
887.50000, 
888.00000,-0.148682
888.50000, 
889.00000,-0.145187
889.50000, 
890.00000,-0.142471
890.50000, 
891.00000,-0.138931
891.50000, 
892.00000,-0.135300
892.50000, 
893.00000,-0.132599
893.50000, 
894.00000,-0.129639
894.50000, 
895.00000,-0.125977
895.50000, 
896.00000,-0.122986
896.50000, 
897.00000,-0.120590
897.50000, 
898.00000,-0.117050
898.50000, 
899.00000,-0.113892
899.50000, 
900.00000,-0.112106
900.50000, 
901.00000, 
901.50000, 
902.00000, 
902.50000, 
903.00000, 
903.50000, 
904.00000, 
904.50000, 
905.00000, 
905.50000, 
906.00000, 
906.50000, 
907.00000, 
907.50000, 
908.00000, 
908.50000, 
909.00000, 
909.50000, 
910.00000, 
910.50000, 
911.00000, 
911.50000, 
912.00000, 
912.50000, 
913.00000, 
913.50000, 
914.00000, 
914.50000, 
915.00000, 
915.50000, 
916.00000, 
916.50000, 
917.00000, 
917.50000, 
918.00000, 
918.50000, 
919.00000, 
919.50000, 
920.00000, 
920.50000, 
921.00000, 
921.50000, 
922.00000, 
922.50000, 
923.00000, 
923.50000, 
924.00000, 
924.50000, 
925.00000, 
925.50000, 
926.00000, 
926.50000, 
927.00000, 
927.50000, 
928.00000, 
928.50000, 
929.00000, 
929.50000, 
930.00000, 
930.50000, 
931.00000, 
931.50000, 
932.00000, 
932.50000, 
933.00000, 
933.50000, 
934.00000, 
934.50000, 
935.00000, 
935.50000, 
936.00000, 
936.50000, 
937.00000, 
937.50000, 
938.00000, 
938.50000, 
939.00000, 
939.50000, 
940.00000, 
940.50000, 
941.00000, 
941.50000, 
942.00000, 
942.50000, 
943.00000, 
943.50000, 
944.00000, 
944.50000, 
945.00000, 
945.50000, 
946.00000, 
946.50000, 
947.00000, 
947.50000, 
948.00000, 
948.50000, 
949.00000, 
949.50000, 
950.00000, 
950.50000, 
951.00000, 
951.50000, 
952.00000, 
952.50000, 
953.00000, 
953.50000, 
954.00000, 
954.50000, 
955.00000, 
955.50000, 
956.00000, 
956.50000, 
957.00000, 
957.50000, 
958.00000, 
958.50000, 
959.00000, 
959.50000, 
960.00000, 
960.50000, 
961.00000, 
961.50000, 
962.00000, 
962.50000, 
963.00000, 
963.50000, 
964.00000, 
964.50000, 
965.00000, 
965.50000, 
966.00000, 
966.50000, 
967.00000, 
967.50000, 
968.00000, 
968.50000, 
969.00000, 
969.50000, 
970.00000, 
970.50000, 
971.00000, 
971.50000, 
972.00000, 
972.50000, 
973.00000, 
973.50000, 
974.00000, 
974.50000, 
975.00000, 
975.50000, 
976.00000, 
976.50000, 
977.00000, 
977.50000, 
978.00000, 
978.50000, 
979.00000, 
979.50000, 
980.00000, 
980.50000, 
981.00000, 
981.50000, 
982.00000, 
982.50000, 
983.00000, 
983.50000, 
984.00000, 
984.50000, 
985.00000, 
985.50000, 
986.00000, 
986.50000, 
987.00000, 
987.50000, 
988.00000, 
988.50000, 
989.00000, 
989.50000, 
990.00000, 
990.50000, 
991.00000, 
991.50000, 
992.00000, 
992.50000, 
993.00000, 
993.50000, 
994.00000, 
994.50000, 
995.00000, 
995.50000, 
996.00000, 
996.50000, 
997.00000, 
997.50000, 
998.00000, 
998.50000, 
999.00000, 
999.50000, 
1000.00000, 
1000.50000, 
1001.00000, 
1001.50000, 
1002.00000, 
1002.50000, 
1003.00000, 
1003.50000, 
1004.00000, 
1004.50000, 
1005.00000, 
1005.50000, 
1006.00000, 
1006.50000, 
1007.00000, 
1007.50000, 
1008.00000, 
1008.50000, 
1009.00000, 
1009.50000, 
1010.00000, 
1010.50000, 
1011.00000, 
1011.50000, 
1012.00000, 
1012.50000, 
1013.00000, 
1013.50000, 
1014.00000, 
1014.50000, 
1015.00000, 
1015.50000, 
1016.00000, 
1016.50000, 
1017.00000, 
1017.50000, 
1018.00000, 
1018.50000, 
1019.00000, 
1019.50000, 
1020.00000, 
1020.50000, 
1021.00000, 
1021.50000, 
1022.00000, 
1022.50000, 
1023.00000, 
1023.50000, 
1024.00000, 
1024.50000, 
1025.00000, 
1025.50000, 
1026.00000, 
1026.50000, 
1027.00000, 
1027.50000, 
1028.00000, 
1028.50000, 
1029.00000, 
1029.50000, 
1030.00000, 
1030.50000, 
1031.00000, 
1031.50000, 
1032.00000, 
1032.50000, 
1033.00000, 
1033.50000, 
1034.00000, 
1034.50000, 
1035.00000, 
1035.50000, 
1036.00000, 
1036.50000, 
1037.00000, 
1037.50000, 
1038.00000, 
1038.50000, 
1039.00000, 
1039.50000, 
1040.00000, 
1040.50000, 
1041.00000, 
1041.50000, 
1042.00000, 
1042.50000, 
1043.00000, 
1043.50000, 
1044.00000, 
1044.50000, 
1045.00000, 
1045.50000, 
1046.00000, 
1046.50000, 
1047.00000, 
1047.50000, 
1048.00000, 
1048.50000, 
1049.00000, 
1049.50000, 
1050.00000, 
1050.50000, 
1051.00000, 
1051.50000, 
1052.00000, 
1052.50000, 
1053.00000, 
1053.50000, 
1054.00000, 
1054.50000, 
1055.00000, 
1055.50000, 
1056.00000, 
1056.50000, 
1057.00000, 
1057.50000, 
1058.00000, 
1058.50000, 
1059.00000, 
1059.50000, 
1060.00000, 
1060.50000, 
1061.00000, 
1061.50000, 
1062.00000, 
1062.50000, 
1063.00000, 
1063.50000, 
1064.00000, 
1064.50000, 
1065.00000, 
1065.50000, 
1066.00000, 
1066.50000, 
1067.00000, 
1067.50000, 
1068.00000, 
1068.50000, 
1069.00000, 
1069.50000, 
1070.00000, 
1070.50000, 
1071.00000, 
1071.50000, 
1072.00000, 
1072.50000, 
1073.00000, 
1073.50000, 
1074.00000, 
1074.50000, 
1075.00000, 
1075.50000, 
1076.00000, 
1076.50000, 
1077.00000, 
1077.50000, 
1078.00000, 
1078.50000, 
1079.00000, 
1079.50000, 
1080.00000, 
1080.50000, 
1081.00000, 
1081.50000, 
1082.00000, 
1082.50000, 
1083.00000, 
1083.50000, 
1084.00000, 
1084.50000, 
1085.00000, 
1085.50000, 
1086.00000, 
1086.50000, 
1087.00000, 
1087.50000, 
1088.00000, 
1088.50000, 
1089.00000, 
1089.50000, 
1090.00000, 
1090.50000, 
1091.00000, 
1091.50000, 
1092.00000, 
1092.50000, 
1093.00000, 
1093.50000, 
1094.00000, 
1094.50000, 
1095.00000, 
1095.50000, 
1096.00000, 
1096.50000, 
1097.00000, 
1097.50000, 
1098.00000, 
1098.50000, 
1099.00000, 
1099.50000, 
1100.00000, 
