"10%H - RawData"
"Wavelength nm.","Abs."
300.00000,4.000000
300.50000, 
301.00000,4.000000
301.50000, 
302.00000,3.958054
302.50000, 
303.00000,4.000000
303.50000, 
304.00000,3.981827
304.50000, 
305.00000,3.999771
305.50000, 
306.00000,4.000000
306.50000, 
307.00000,3.988663
307.50000, 
308.00000,4.000000
308.50000, 
309.00000,4.000000
309.50000, 
310.00000,3.976654
310.50000, 
311.00000,3.921738
311.50000, 
312.00000,3.961029
312.50000, 
313.00000,3.974030
313.50000, 
314.00000,3.992096
314.50000, 
315.00000,4.000000
315.50000, 
316.00000,3.928299
316.50000, 
317.00000,3.941711
317.50000, 
318.00000,3.991776
318.50000, 
319.00000,3.961060
319.50000, 
320.00000,3.995895
320.50000, 
321.00000,3.995667
321.50000, 
322.00000,3.972260
322.50000, 
323.00000,4.000000
323.50000, 
324.00000,3.964249
324.50000, 
325.00000,3.935730
325.50000, 
326.00000,4.000000
326.50000, 
327.00000,3.914505
327.50000, 
328.00000,3.947922
328.50000, 
329.00000,4.000000
329.50000, 
330.00000,4.000000
330.50000, 
331.00000,3.977066
331.50000, 
332.00000,4.000000
332.50000, 
333.00000,3.867004
333.50000, 
334.00000,3.983353
334.50000, 
335.00000,3.780273
335.50000, 
336.00000,4.000000
336.50000, 
337.00000,3.985916
337.50000, 
338.00000,3.960388
338.50000, 
339.00000,4.000000
339.50000, 
340.00000,3.900574
340.50000, 
341.00000,3.959808
341.50000, 
342.00000,3.977020
342.50000, 
343.00000,3.968414
343.50000, 
344.00000,3.903229
344.50000, 
345.00000,3.942886
345.50000, 
346.00000,3.923508
346.50000, 
347.00000,3.795853
347.50000, 
348.00000,3.901169
348.50000, 
349.00000,3.966690
349.50000, 
350.00000,3.938171
350.50000, 
351.00000,3.937210
351.50000, 
352.00000,3.906204
352.50000, 
353.00000,3.956451
353.50000, 
354.00000,3.884628
354.50000, 
355.00000,3.963913
355.50000, 
356.00000,3.948090
356.50000, 
357.00000,3.885437
357.50000, 
358.00000,3.951920
358.50000, 
359.00000,3.835205
359.50000, 
360.00000,3.978043
360.50000, 
361.00000,3.932495
361.50000, 
362.00000,3.930420
362.50000, 
363.00000,3.836441
363.50000, 
364.00000,3.938583
364.50000, 
365.00000,3.950943
365.50000, 
366.00000,3.956512
366.50000, 
367.00000,3.900360
367.50000, 
368.00000,3.873886
368.50000, 
369.00000,3.941269
369.50000, 
370.00000,3.943130
370.50000, 
371.00000,3.880966
371.50000, 
372.00000,3.974762
372.50000, 
373.00000,3.951141
373.50000, 
374.00000,3.851563
374.50000, 
375.00000,3.828339
375.50000, 
376.00000,3.985687
376.50000, 
377.00000,3.920364
377.50000, 
378.00000,3.991882
378.50000, 
379.00000,3.981110
379.50000, 
380.00000,3.835922
380.50000, 
381.00000,3.814560
381.50000, 
382.00000,3.994095
382.50000, 
383.00000,3.687820
383.50000, 
384.00000,3.524643
384.50000, 
385.00000,3.302826
385.50000, 
386.00000,2.956299
386.50000, 
387.00000,2.796738
387.50000, 
388.00000,2.645676
388.50000, 
389.00000,2.481567
389.50000, 
390.00000,2.361816
390.50000, 
391.00000,2.250641
391.50000, 
392.00000,2.157227
392.50000, 
393.00000,2.068649
393.50000, 
394.00000,1.983978
394.50000, 
395.00000,1.919662
395.50000, 
396.00000,1.855026
396.50000, 
397.00000,1.798950
397.50000, 
398.00000,1.755417
398.50000, 
399.00000,1.718185
399.50000, 
400.00000,1.685577
400.50000, 
401.00000,1.660599
401.50000, 
402.00000,1.640976
402.50000, 
403.00000,1.628098
403.50000, 
404.00000,1.617126
404.50000, 
405.00000,1.610397
405.50000, 
406.00000,1.607300
406.50000, 
407.00000,1.606430
407.50000, 
408.00000,1.607742
408.50000, 
409.00000,1.610886
409.50000, 
410.00000,1.615616
410.50000, 
411.00000,1.620163
411.50000, 
412.00000,1.626892
412.50000, 
413.00000,1.634201
413.50000, 
414.00000,1.641479
414.50000, 
415.00000,1.649857
415.50000, 
416.00000,1.657822
416.50000, 
417.00000,1.666382
417.50000, 
418.00000,1.676132
418.50000, 
419.00000,1.685959
419.50000, 
420.00000,1.694611
420.50000, 
421.00000,1.704376
421.50000, 
422.00000,1.715210
422.50000, 
423.00000,1.723724
423.50000, 
424.00000,1.735199
424.50000, 
425.00000,1.744324
425.50000, 
426.00000,1.756485
426.50000, 
427.00000,1.765640
427.50000, 
428.00000,1.777878
428.50000, 
429.00000,1.789383
429.50000, 
430.00000,1.800323
430.50000, 
431.00000,1.813690
431.50000, 
432.00000,1.824326
432.50000, 
433.00000,1.834915
433.50000, 
434.00000,1.847961
434.50000, 
435.00000,1.860931
435.50000, 
436.00000,1.872711
436.50000, 
437.00000,1.883804
437.50000, 
438.00000,1.896805
438.50000, 
439.00000,1.907684
439.50000, 
440.00000,1.921051
440.50000, 
441.00000,1.933121
441.50000, 
442.00000,1.943420
442.50000, 
443.00000,1.954742
443.50000, 
444.00000,1.966629
444.50000, 
445.00000,1.981293
445.50000, 
446.00000,1.992661
446.50000, 
447.00000,2.003571
447.50000, 
448.00000,2.015762
448.50000, 
449.00000,2.025726
449.50000, 
450.00000,2.038101
450.50000, 
451.00000,2.050354
451.50000, 
452.00000,2.061844
452.50000, 
453.00000,2.074280
453.50000, 
454.00000,2.087509
454.50000, 
455.00000,2.098328
455.50000, 
456.00000,2.110413
456.50000, 
457.00000,2.120468
457.50000, 
458.00000,2.133804
458.50000, 
459.00000,2.146500
459.50000, 
460.00000,2.158890
460.50000, 
461.00000,2.170059
461.50000, 
462.00000,2.180115
462.50000, 
463.00000,2.191376
463.50000, 
464.00000,2.203766
464.50000, 
465.00000,2.214615
465.50000, 
466.00000,2.226288
466.50000, 
467.00000,2.238770
467.50000, 
468.00000,2.247971
468.50000, 
469.00000,2.257828
469.50000, 
470.00000,2.269592
470.50000, 
471.00000,2.280441
471.50000, 
472.00000,2.293915
472.50000, 
473.00000,2.306122
473.50000, 
474.00000,2.317825
474.50000, 
475.00000,2.322952
475.50000, 
476.00000,2.329041
476.50000, 
477.00000,2.335556
477.50000, 
478.00000,2.344315
478.50000, 
479.00000,2.347244
479.50000, 
480.00000,2.347839
480.50000, 
481.00000,2.350586
481.50000, 
482.00000,2.353241
482.50000, 
483.00000,2.353470
483.50000, 
484.00000,2.351364
484.50000, 
485.00000,2.350967
485.50000, 
486.00000,2.346954
486.50000, 
487.00000,2.345108
487.50000, 
488.00000,2.344391
488.50000, 
489.00000,2.340576
489.50000, 
490.00000,2.340347
490.50000, 
491.00000,2.339233
491.50000, 
492.00000,2.341019
492.50000, 
493.00000,2.342758
493.50000, 
494.00000,2.346588
494.50000, 
495.00000,2.351242
495.50000, 
496.00000,2.357605
496.50000, 
497.00000,2.362228
497.50000, 
498.00000,2.369019
498.50000, 
499.00000,2.375854
499.50000, 
500.00000,2.381775
500.50000, 
501.00000,2.389297
501.50000, 
502.00000,2.397629
502.50000, 
503.00000,2.403000
503.50000, 
504.00000,2.408447
504.50000, 
505.00000,2.414429
505.50000, 
506.00000,2.421341
506.50000, 
507.00000,2.426895
507.50000, 
508.00000,2.432938
508.50000, 
509.00000,2.436935
509.50000, 
510.00000,2.439911
510.50000, 
511.00000,2.446152
511.50000, 
512.00000,2.446548
512.50000, 
513.00000,2.450592
513.50000, 
514.00000,2.455215
514.50000, 
515.00000,2.457321
515.50000, 
516.00000,2.458008
516.50000, 
517.00000,2.459274
517.50000, 
518.00000,2.460663
518.50000, 
519.00000,2.461349
519.50000, 
520.00000,2.461700
520.50000, 
521.00000,2.462280
521.50000, 
522.00000,2.459137
522.50000, 
523.00000,2.458527
523.50000, 
524.00000,2.456696
524.50000, 
525.00000,2.456100
525.50000, 
526.00000,2.456055
526.50000, 
527.00000,2.453247
527.50000, 
528.00000,2.451477
528.50000, 
529.00000,2.450912
529.50000, 
530.00000,2.446487
530.50000, 
531.00000,2.443848
531.50000, 
532.00000,2.443146
532.50000, 
533.00000,2.437149
533.50000, 
534.00000,2.437714
534.50000, 
535.00000,2.436142
535.50000, 
536.00000,2.419128
536.50000, 
537.00000,2.402405
537.50000, 
538.00000,2.398422
538.50000, 
539.00000,2.399521
539.50000, 
540.00000,2.396851
540.50000, 
541.00000,2.396622
541.50000, 
542.00000,2.396042
542.50000, 
543.00000,2.393127
543.50000, 
544.00000,2.392670
544.50000, 
545.00000,2.389389
545.50000, 
546.00000,2.388672
546.50000, 
547.00000,2.384903
547.50000, 
548.00000,2.383667
548.50000, 
549.00000,2.381989
549.50000, 
550.00000,2.377701
550.50000, 
551.00000,2.374802
551.50000, 
552.00000,2.369263
552.50000, 
553.00000,2.364899
553.50000, 
554.00000,2.359085
554.50000, 
555.00000,2.353378
555.50000, 
556.00000,2.346649
556.50000, 
557.00000,2.339142
557.50000, 
558.00000,2.329849
558.50000, 
559.00000,2.321701
559.50000, 
560.00000,2.312057
560.50000, 
561.00000,2.301910
561.50000, 
562.00000,2.291077
562.50000, 
563.00000,2.279968
563.50000, 
564.00000,2.266846
564.50000, 
565.00000,2.253494
565.50000, 
566.00000,2.239929
566.50000, 
567.00000,2.225723
567.50000, 
568.00000,2.211548
568.50000, 
569.00000,2.196640
569.50000, 
570.00000,2.181702
570.50000, 
571.00000,2.166595
571.50000, 
572.00000,2.150421
572.50000, 
573.00000,2.135269
573.50000, 
574.00000,2.119263
574.50000, 
575.00000,2.102005
575.50000, 
576.00000,2.086655
576.50000, 
577.00000,2.070480
577.50000, 
578.00000,2.055084
578.50000, 
579.00000,2.039215
579.50000, 
580.00000,2.024078
580.50000, 
581.00000,2.010193
581.50000, 
582.00000,1.996628
582.50000, 
583.00000,1.983673
583.50000, 
584.00000,1.971420
584.50000, 
585.00000,1.959793
585.50000, 
586.00000,1.949677
586.50000, 
587.00000,1.939041
587.50000, 
588.00000,1.929703
588.50000, 
589.00000,1.921432
589.50000, 
590.00000,1.914047
590.50000, 
591.00000,1.906540
591.50000, 
592.00000,1.898819
592.50000, 
593.00000,1.892303
593.50000, 
594.00000,1.885712
594.50000, 
595.00000,1.879044
595.50000, 
596.00000,1.872742
596.50000, 
597.00000,1.865677
597.50000, 
598.00000,1.858398
598.50000, 
599.00000,1.850586
599.50000, 
600.00000,1.842026
600.50000, 
601.00000,1.832199
601.50000, 
602.00000,1.821686
602.50000, 
603.00000,1.809586
603.50000, 
604.00000,1.795898
604.50000, 
605.00000,1.781036
605.50000, 
606.00000,1.765182
606.50000, 
607.00000,1.747330
607.50000, 
608.00000,1.728912
608.50000, 
609.00000,1.708847
609.50000, 
610.00000,1.686935
610.50000, 
611.00000,1.664139
611.50000, 
612.00000,1.638840
612.50000, 
613.00000,1.612900
613.50000, 
614.00000,1.585236
614.50000, 
615.00000,1.556244
615.50000, 
616.00000,1.526855
616.50000, 
617.00000,1.496750
617.50000, 
618.00000,1.464645
618.50000, 
619.00000,1.431961
619.50000, 
620.00000,1.398575
620.50000, 
621.00000,1.363693
621.50000, 
622.00000,1.328552
622.50000, 
623.00000,1.292542
623.50000, 
624.00000,1.255005
624.50000, 
625.00000,1.217514
625.50000, 
626.00000,1.180695
626.50000, 
627.00000,1.143463
627.50000, 
628.00000,1.106262
628.50000, 
629.00000,1.069809
629.50000, 
630.00000,1.034531
630.50000, 
631.00000,1.000885
631.50000, 
632.00000,0.968185
632.50000, 
633.00000,0.938019
633.50000, 
634.00000,0.912003
634.50000, 
635.00000,0.880386
635.50000, 
636.00000,0.844055
636.50000, 
637.00000,0.806580
637.50000, 
638.00000,0.769974
638.50000, 
639.00000,0.732300
639.50000, 
640.00000,0.695862
640.50000, 
641.00000,0.660980
641.50000, 
642.00000,0.628067
642.50000, 
643.00000,0.599014
643.50000, 
644.00000,0.572861
644.50000, 
645.00000,0.550308
645.50000, 
646.00000,0.530762
646.50000, 
647.00000,0.514374
647.50000, 
648.00000,0.500809
648.50000, 
649.00000,0.489319
649.50000, 
650.00000,0.479889
650.50000, 
651.00000,0.471924
651.50000, 
652.00000,0.465225
652.50000, 
653.00000,0.459290
653.50000, 
654.00000,0.454178
654.50000, 
655.00000,0.449524
655.50000, 
656.00000,0.445450
656.50000, 
657.00000,0.441895
657.50000, 
658.00000,0.438599
658.50000, 
659.00000,0.435608
659.50000, 
660.00000,0.432846
660.50000, 
661.00000,0.430267
661.50000, 
662.00000,0.427933
662.50000, 
663.00000,0.425934
663.50000, 
664.00000,0.423767
664.50000, 
665.00000,0.421844
665.50000, 
666.00000,0.420029
666.50000, 
667.00000,0.418640
667.50000, 
668.00000,0.416870
668.50000, 
669.00000,0.415375
669.50000, 
670.00000,0.413834
670.50000, 
671.00000,0.412521
671.50000, 
672.00000,0.411087
672.50000, 
673.00000,0.409912
673.50000, 
674.00000,0.408463
674.50000, 
675.00000,0.407349
675.50000, 
676.00000,0.406036
676.50000, 
677.00000,0.405029
677.50000, 
678.00000,0.403748
678.50000, 
679.00000,0.402817
679.50000, 
680.00000,0.401581
680.50000, 
681.00000,0.400726
681.50000, 
682.00000,0.399567
682.50000, 
683.00000,0.398666
683.50000, 
684.00000,0.397537
684.50000, 
685.00000,0.396774
685.50000, 
686.00000,0.395660
686.50000, 
687.00000,0.394958
687.50000, 
688.00000,0.393860
688.50000, 
689.00000,0.393112
689.50000, 
690.00000,0.391983
690.50000, 
691.00000,0.391281
691.50000, 
692.00000,0.390213
692.50000, 
693.00000,0.389374
693.50000, 
694.00000,0.388245
694.50000, 
695.00000,0.387360
695.50000, 
696.00000,0.386337
696.50000, 
697.00000,0.385544
697.50000, 
698.00000,0.384506
698.50000, 
699.00000,0.383530
699.50000, 
700.00000,0.382507
700.50000, 
701.00000,0.381531
701.50000, 
702.00000,0.380615
702.50000, 
703.00000,0.379700
703.50000, 
704.00000,0.378845
704.50000, 
705.00000,0.377686
705.50000, 
706.00000,0.376984
706.50000, 
707.00000,0.375809
707.50000, 
708.00000,0.375061
708.50000, 
709.00000,0.373917
709.50000, 
710.00000,0.373169
710.50000, 
711.00000,0.372025
711.50000, 
712.00000,0.371155
712.50000, 
713.00000,0.370209
713.50000, 
714.00000,0.369278
714.50000, 
715.00000,0.368423
715.50000, 
716.00000,0.367249
716.50000, 
717.00000,0.366562
717.50000, 
718.00000,0.365189
718.50000, 
719.00000,0.364517
719.50000, 
720.00000,0.363388
720.50000, 
721.00000,0.362503
721.50000, 
722.00000,0.361450
722.50000, 
723.00000,0.360474
723.50000, 
724.00000,0.359634
724.50000, 
725.00000,0.358429
725.50000, 
726.00000,0.357712
726.50000, 
727.00000,0.356461
727.50000, 
728.00000,0.355713
728.50000, 
729.00000,0.354462
729.50000, 
730.00000,0.353683
730.50000, 
731.00000,0.352753
731.50000, 
732.00000,0.351746
732.50000, 
733.00000,0.351059
733.50000, 
734.00000,0.349792
734.50000, 
735.00000,0.349121
735.50000, 
736.00000,0.348068
736.50000, 
737.00000,0.347244
737.50000, 
738.00000,0.346420
738.50000, 
739.00000,0.345245
739.50000, 
740.00000,0.344635
740.50000, 
741.00000,0.343384
741.50000, 
742.00000,0.342621
742.50000, 
743.00000,0.341675
743.50000, 
744.00000,0.340591
744.50000, 
745.00000,0.339844
745.50000, 
746.00000,0.338516
746.50000, 
747.00000,0.337799
747.50000, 
748.00000,0.336639
748.50000, 
749.00000,0.335754
749.50000, 
750.00000,0.334900
750.50000, 
751.00000,0.333679
751.50000, 
752.00000,0.333176
752.50000, 
753.00000,0.331955
753.50000, 
754.00000,0.331253
754.50000, 
755.00000,0.330383
755.50000, 
756.00000,0.329346
756.50000, 
757.00000,0.328674
757.50000, 
758.00000,0.327560
758.50000, 
759.00000,0.326874
759.50000, 
760.00000,0.326141
760.50000, 
761.00000,0.325012
761.50000, 
762.00000,0.324326
762.50000, 
763.00000,0.323380
763.50000, 
764.00000,0.322372
764.50000, 
765.00000,0.321686
765.50000, 
766.00000,0.320633
766.50000, 
767.00000,0.319992
767.50000, 
768.00000,0.319000
768.50000, 
769.00000,0.318146
769.50000, 
770.00000,0.317612
770.50000, 
771.00000,0.316391
771.50000, 
772.00000,0.315872
772.50000, 
773.00000,0.314819
773.50000, 
774.00000,0.314026
774.50000, 
775.00000,0.313431
775.50000, 
776.00000,0.312271
776.50000, 
777.00000,0.311676
777.50000, 
778.00000,0.311005
778.50000, 
779.00000,0.310043
779.50000, 
780.00000,0.309433
780.50000, 
781.00000,0.308594
781.50000, 
782.00000,0.307648
782.50000, 
783.00000,0.307190
783.50000, 
784.00000,0.306122
784.50000, 
785.00000,0.305557
785.50000, 
786.00000,0.304779
786.50000, 
787.00000,0.303864
787.50000, 
788.00000,0.303207
788.50000, 
789.00000,0.302322
789.50000, 
790.00000,0.301376
790.50000, 
791.00000,0.300903
791.50000, 
792.00000,0.299850
792.50000, 
793.00000,0.299133
793.50000, 
794.00000,0.298340
794.50000, 
795.00000,0.297333
795.50000, 
796.00000,0.296738
796.50000, 
797.00000,0.295807
797.50000, 
798.00000,0.294907
798.50000, 
799.00000,0.294327
799.50000, 
800.00000,0.293396
800.50000, 
801.00000,0.292542
801.50000, 
802.00000,0.291916
802.50000, 
803.00000,0.290771
803.50000, 
804.00000,0.289871
804.50000, 
805.00000,0.289352
805.50000, 
806.00000,0.288177
806.50000, 
807.00000,0.287338
807.50000, 
808.00000,0.286453
808.50000, 
809.00000,0.285355
809.50000, 
810.00000,0.284348
810.50000, 
811.00000,0.283600
811.50000, 
812.00000,0.282257
812.50000, 
813.00000,0.281387
813.50000, 
814.00000,0.280212
814.50000, 
815.00000,0.279037
815.50000, 
816.00000,0.278015
816.50000, 
817.00000,0.277023
817.50000, 
818.00000,0.275620
818.50000, 
819.00000,0.274612
819.50000, 
820.00000,0.273102
820.50000, 
821.00000,0.272110
821.50000, 
822.00000,0.270920
822.50000, 
823.00000,0.269882
823.50000, 
824.00000,0.268250
824.50000, 
825.00000,0.267303
825.50000, 
826.00000,0.265762
826.50000, 
827.00000,0.264511
827.50000, 
828.00000,0.263260
828.50000, 
829.00000,0.261826
829.50000, 
830.00000,0.260376
830.50000, 
831.00000,0.259064
831.50000, 
832.00000,0.257675
832.50000, 
833.00000,0.255875
833.50000, 
834.00000,0.254776
834.50000, 
835.00000,0.252960
835.50000, 
836.00000,0.251465
836.50000, 
837.00000,0.249954
837.50000, 
838.00000,0.248413
838.50000, 
839.00000,0.246445
839.50000, 
840.00000,0.245148
840.50000, 
841.00000,0.243469
841.50000, 
842.00000,0.241852
842.50000, 
843.00000,0.240311
843.50000, 
844.00000,0.238571
844.50000, 
845.00000,0.236969
845.50000, 
846.00000,0.235336
846.50000, 
847.00000,0.233856
847.50000, 
848.00000,0.231979
848.50000, 
849.00000,0.230576
849.50000, 
850.00000,0.228775
850.50000, 
851.00000,0.227173
851.50000, 
852.00000,0.225510
852.50000, 
853.00000,0.223831
853.50000, 
854.00000,0.222168
854.50000, 
855.00000,0.220276
855.50000, 
856.00000,0.218765
856.50000, 
857.00000,0.216827
857.50000, 
858.00000,0.215240
858.50000, 
859.00000,0.213425
859.50000, 
860.00000,0.211807
860.50000, 
861.00000,0.210129
861.50000, 
862.00000,0.208405
862.50000, 
863.00000,0.206848
863.50000, 
864.00000,0.205032
864.50000, 
865.00000,0.203491
865.50000, 
866.00000,0.201736
866.50000, 
867.00000,0.200470
867.50000, 
868.00000,0.198776
868.50000, 
869.00000,0.197205
869.50000, 
870.00000,0.195831
870.50000, 
871.00000,0.194168
871.50000, 
872.00000,0.192734
872.50000, 
873.00000,0.191208
873.50000, 
874.00000,0.189957
874.50000, 
875.00000,0.188492
875.50000, 
876.00000,0.186905
876.50000, 
877.00000,0.185730
877.50000, 
878.00000,0.184113
878.50000, 
879.00000,0.182770
879.50000, 
880.00000,0.181381
880.50000, 
881.00000,0.180038
881.50000, 
882.00000,0.178589
882.50000, 
883.00000,0.177185
883.50000, 
884.00000,0.176208
884.50000, 
885.00000,0.174774
885.50000, 
886.00000,0.173523
886.50000, 
887.00000,0.172440
887.50000, 
888.00000,0.171143
888.50000, 
889.00000,0.169983
889.50000, 
890.00000,0.168686
890.50000, 
891.00000,0.167847
891.50000, 
892.00000,0.166656
892.50000, 
893.00000,0.165543
893.50000, 
894.00000,0.164917
894.50000, 
895.00000,0.163727
895.50000, 
896.00000,0.162659
896.50000, 
897.00000,0.161865
897.50000, 
898.00000,0.160934
898.50000, 
899.00000,0.159927
899.50000, 
900.00000,0.159134
900.50000, 
901.00000, 
901.50000, 
902.00000, 
902.50000, 
903.00000, 
903.50000, 
904.00000, 
904.50000, 
905.00000, 
905.50000, 
906.00000, 
906.50000, 
907.00000, 
907.50000, 
908.00000, 
908.50000, 
909.00000, 
909.50000, 
910.00000, 
910.50000, 
911.00000, 
911.50000, 
912.00000, 
912.50000, 
913.00000, 
913.50000, 
914.00000, 
914.50000, 
915.00000, 
915.50000, 
916.00000, 
916.50000, 
917.00000, 
917.50000, 
918.00000, 
918.50000, 
919.00000, 
919.50000, 
920.00000, 
920.50000, 
921.00000, 
921.50000, 
922.00000, 
922.50000, 
923.00000, 
923.50000, 
924.00000, 
924.50000, 
925.00000, 
925.50000, 
926.00000, 
926.50000, 
927.00000, 
927.50000, 
928.00000, 
928.50000, 
929.00000, 
929.50000, 
930.00000, 
930.50000, 
931.00000, 
931.50000, 
932.00000, 
932.50000, 
933.00000, 
933.50000, 
934.00000, 
934.50000, 
935.00000, 
935.50000, 
936.00000, 
936.50000, 
937.00000, 
937.50000, 
938.00000, 
938.50000, 
939.00000, 
939.50000, 
940.00000, 
940.50000, 
941.00000, 
941.50000, 
942.00000, 
942.50000, 
943.00000, 
943.50000, 
944.00000, 
944.50000, 
945.00000, 
945.50000, 
946.00000, 
946.50000, 
947.00000, 
947.50000, 
948.00000, 
948.50000, 
949.00000, 
949.50000, 
950.00000, 
950.50000, 
951.00000, 
951.50000, 
952.00000, 
952.50000, 
953.00000, 
953.50000, 
954.00000, 
954.50000, 
955.00000, 
955.50000, 
956.00000, 
956.50000, 
957.00000, 
957.50000, 
958.00000, 
958.50000, 
959.00000, 
959.50000, 
960.00000, 
960.50000, 
961.00000, 
961.50000, 
962.00000, 
962.50000, 
963.00000, 
963.50000, 
964.00000, 
964.50000, 
965.00000, 
965.50000, 
966.00000, 
966.50000, 
967.00000, 
967.50000, 
968.00000, 
968.50000, 
969.00000, 
969.50000, 
970.00000, 
970.50000, 
971.00000, 
971.50000, 
972.00000, 
972.50000, 
973.00000, 
973.50000, 
974.00000, 
974.50000, 
975.00000, 
975.50000, 
976.00000, 
976.50000, 
977.00000, 
977.50000, 
978.00000, 
978.50000, 
979.00000, 
979.50000, 
980.00000, 
980.50000, 
981.00000, 
981.50000, 
982.00000, 
982.50000, 
983.00000, 
983.50000, 
984.00000, 
984.50000, 
985.00000, 
985.50000, 
986.00000, 
986.50000, 
987.00000, 
987.50000, 
988.00000, 
988.50000, 
989.00000, 
989.50000, 
990.00000, 
990.50000, 
991.00000, 
991.50000, 
992.00000, 
992.50000, 
993.00000, 
993.50000, 
994.00000, 
994.50000, 
995.00000, 
995.50000, 
996.00000, 
996.50000, 
997.00000, 
997.50000, 
998.00000, 
998.50000, 
999.00000, 
999.50000, 
1000.00000, 
1000.50000, 
1001.00000, 
1001.50000, 
1002.00000, 
1002.50000, 
1003.00000, 
1003.50000, 
1004.00000, 
1004.50000, 
1005.00000, 
1005.50000, 
1006.00000, 
1006.50000, 
1007.00000, 
1007.50000, 
1008.00000, 
1008.50000, 
1009.00000, 
1009.50000, 
1010.00000, 
1010.50000, 
1011.00000, 
1011.50000, 
1012.00000, 
1012.50000, 
1013.00000, 
1013.50000, 
1014.00000, 
1014.50000, 
1015.00000, 
1015.50000, 
1016.00000, 
1016.50000, 
1017.00000, 
1017.50000, 
1018.00000, 
1018.50000, 
1019.00000, 
1019.50000, 
1020.00000, 
1020.50000, 
1021.00000, 
1021.50000, 
1022.00000, 
1022.50000, 
1023.00000, 
1023.50000, 
1024.00000, 
1024.50000, 
1025.00000, 
1025.50000, 
1026.00000, 
1026.50000, 
1027.00000, 
1027.50000, 
1028.00000, 
1028.50000, 
1029.00000, 
1029.50000, 
1030.00000, 
1030.50000, 
1031.00000, 
1031.50000, 
1032.00000, 
1032.50000, 
1033.00000, 
1033.50000, 
1034.00000, 
1034.50000, 
1035.00000, 
1035.50000, 
1036.00000, 
1036.50000, 
1037.00000, 
1037.50000, 
1038.00000, 
1038.50000, 
1039.00000, 
1039.50000, 
1040.00000, 
1040.50000, 
1041.00000, 
1041.50000, 
1042.00000, 
1042.50000, 
1043.00000, 
1043.50000, 
1044.00000, 
1044.50000, 
1045.00000, 
1045.50000, 
1046.00000, 
1046.50000, 
1047.00000, 
1047.50000, 
1048.00000, 
1048.50000, 
1049.00000, 
1049.50000, 
1050.00000, 
1050.50000, 
1051.00000, 
1051.50000, 
1052.00000, 
1052.50000, 
1053.00000, 
1053.50000, 
1054.00000, 
1054.50000, 
1055.00000, 
1055.50000, 
1056.00000, 
1056.50000, 
1057.00000, 
1057.50000, 
1058.00000, 
1058.50000, 
1059.00000, 
1059.50000, 
1060.00000, 
1060.50000, 
1061.00000, 
1061.50000, 
1062.00000, 
1062.50000, 
1063.00000, 
1063.50000, 
1064.00000, 
1064.50000, 
1065.00000, 
1065.50000, 
1066.00000, 
1066.50000, 
1067.00000, 
1067.50000, 
1068.00000, 
1068.50000, 
1069.00000, 
1069.50000, 
1070.00000, 
1070.50000, 
1071.00000, 
1071.50000, 
1072.00000, 
1072.50000, 
1073.00000, 
1073.50000, 
1074.00000, 
1074.50000, 
1075.00000, 
1075.50000, 
1076.00000, 
1076.50000, 
1077.00000, 
1077.50000, 
1078.00000, 
1078.50000, 
1079.00000, 
1079.50000, 
1080.00000, 
1080.50000, 
1081.00000, 
1081.50000, 
1082.00000, 
1082.50000, 
1083.00000, 
1083.50000, 
1084.00000, 
1084.50000, 
1085.00000, 
1085.50000, 
1086.00000, 
1086.50000, 
1087.00000, 
1087.50000, 
1088.00000, 
1088.50000, 
1089.00000, 
1089.50000, 
1090.00000, 
1090.50000, 
1091.00000, 
1091.50000, 
1092.00000, 
1092.50000, 
1093.00000, 
1093.50000, 
1094.00000, 
1094.50000, 
1095.00000, 
1095.50000, 
1096.00000, 
1096.50000, 
1097.00000, 
1097.50000, 
1098.00000, 
1098.50000, 
1099.00000, 
1099.50000, 
1100.00000, 
