"10%H - RawData"
"Wavelength nm.","Abs."
300.00000,3.970947
300.50000, 
301.00000,3.968964
301.50000, 
302.00000,3.996964
302.50000, 
303.00000,3.945862
303.50000, 
304.00000,3.942398
304.50000, 
305.00000,3.983063
305.50000, 
306.00000,3.874283
306.50000, 
307.00000,3.952042
307.50000, 
308.00000,3.988541
308.50000, 
309.00000,3.822830
309.50000, 
310.00000,3.823273
310.50000, 
311.00000,3.919479
311.50000, 
312.00000,3.885803
312.50000, 
313.00000,3.921509
313.50000, 
314.00000,3.946136
314.50000, 
315.00000,3.964096
315.50000, 
316.00000,3.935989
316.50000, 
317.00000,3.883041
317.50000, 
318.00000,3.835861
318.50000, 
319.00000,3.817780
319.50000, 
320.00000,3.937851
320.50000, 
321.00000,3.980286
321.50000, 
322.00000,3.777435
322.50000, 
323.00000,3.962479
323.50000, 
324.00000,3.880035
324.50000, 
325.00000,3.795944
325.50000, 
326.00000,3.643051
326.50000, 
327.00000,3.526505
327.50000, 
328.00000,3.923660
328.50000, 
329.00000,3.834137
329.50000, 
330.00000,3.880127
330.50000, 
331.00000,3.878723
331.50000, 
332.00000,3.903793
332.50000, 
333.00000,3.865921
333.50000, 
334.00000,3.920135
334.50000, 
335.00000,3.907974
335.50000, 
336.00000,3.775604
336.50000, 
337.00000,3.719131
337.50000, 
338.00000,3.986008
338.50000, 
339.00000,3.791916
339.50000, 
340.00000,3.569687
340.50000, 
341.00000,3.725494
341.50000, 
342.00000,3.970581
342.50000, 
343.00000,3.683502
343.50000, 
344.00000,3.558594
344.50000, 
345.00000,3.621643
345.50000, 
346.00000,3.685349
346.50000, 
347.00000,3.842194
347.50000, 
348.00000,3.993637
348.50000, 
349.00000,3.947479
349.50000, 
350.00000,3.859924
350.50000, 
351.00000,3.918182
351.50000, 
352.00000,3.828125
352.50000, 
353.00000,3.862000
353.50000, 
354.00000,3.870407
354.50000, 
355.00000,3.657089
355.50000, 
356.00000,3.671967
356.50000, 
357.00000,3.948151
357.50000, 
358.00000,3.980896
358.50000, 
359.00000,3.841949
359.50000, 
360.00000,3.902084
360.50000, 
361.00000,3.736465
361.50000, 
362.00000,3.598785
362.50000, 
363.00000,3.777664
363.50000, 
364.00000,3.912354
364.50000, 
365.00000,3.952148
365.50000, 
366.00000,3.566345
366.50000, 
367.00000,3.883942
367.50000, 
368.00000,3.895142
368.50000, 
369.00000,3.953217
369.50000, 
370.00000,3.741730
370.50000, 
371.00000,3.865143
371.50000, 
372.00000,3.807709
372.50000, 
373.00000,3.718323
373.50000, 
374.00000,3.904373
374.50000, 
375.00000,3.780930
375.50000, 
376.00000,3.854019
376.50000, 
377.00000,3.698181
377.50000, 
378.00000,3.825073
378.50000, 
379.00000,3.927643
379.50000, 
380.00000,3.863449
380.50000, 
381.00000,3.569748
381.50000, 
382.00000,3.652985
382.50000, 
383.00000,3.294632
383.50000, 
384.00000,3.061325
384.50000, 
385.00000,2.841614
385.50000, 
386.00000,2.637253
386.50000, 
387.00000,2.448273
387.50000, 
388.00000,2.302551
388.50000, 
389.00000,2.145401
389.50000, 
390.00000,2.013962
390.50000, 
391.00000,1.886917
391.50000, 
392.00000,1.784363
392.50000, 
393.00000,1.682495
393.50000, 
394.00000,1.592285
394.50000, 
395.00000,1.514740
395.50000, 
396.00000,1.442017
396.50000, 
397.00000,1.378052
397.50000, 
398.00000,1.324295
398.50000, 
399.00000,1.276703
399.50000, 
400.00000,1.235092
400.50000, 
401.00000,1.199448
401.50000, 
402.00000,1.170700
402.50000, 
403.00000,1.147247
403.50000, 
404.00000,1.126633
404.50000, 
405.00000,1.110291
405.50000, 
406.00000,1.096069
406.50000, 
407.00000,1.084412
407.50000, 
408.00000,1.075317
408.50000, 
409.00000,1.067932
409.50000, 
410.00000,1.060867
410.50000, 
411.00000,1.056152
411.50000, 
412.00000,1.051743
412.50000, 
413.00000,1.048004
413.50000, 
414.00000,1.045029
414.50000, 
415.00000,1.042358
415.50000, 
416.00000,1.040695
416.50000, 
417.00000,1.040024
417.50000, 
418.00000,1.038162
418.50000, 
419.00000,1.037018
419.50000, 
420.00000,1.035339
420.50000, 
421.00000,1.034515
421.50000, 
422.00000,1.033554
422.50000, 
423.00000,1.032806
423.50000, 
424.00000,1.031952
424.50000, 
425.00000,1.031555
425.50000, 
426.00000,1.031174
426.50000, 
427.00000,1.030670
427.50000, 
428.00000,1.030594
428.50000, 
429.00000,1.030609
429.50000, 
430.00000,1.030655
430.50000, 
431.00000,1.030777
431.50000, 
432.00000,1.031143
432.50000, 
433.00000,1.031586
433.50000, 
434.00000,1.032028
434.50000, 
435.00000,1.032166
435.50000, 
436.00000,1.032623
436.50000, 
437.00000,1.032761
437.50000, 
438.00000,1.032776
438.50000, 
439.00000,1.033112
439.50000, 
440.00000,1.033295
440.50000, 
441.00000,1.033432
441.50000, 
442.00000,1.033875
442.50000, 
443.00000,1.034119
443.50000, 
444.00000,1.034485
444.50000, 
445.00000,1.034958
445.50000, 
446.00000,1.035416
446.50000, 
447.00000,1.035797
447.50000, 
448.00000,1.036255
448.50000, 
449.00000,1.036926
449.50000, 
450.00000,1.037369
450.50000, 
451.00000,1.038223
451.50000, 
452.00000,1.038681
452.50000, 
453.00000,1.039642
453.50000, 
454.00000,1.040497
454.50000, 
455.00000,1.041275
455.50000, 
456.00000,1.042496
456.50000, 
457.00000,1.043228
457.50000, 
458.00000,1.044266
458.50000, 
459.00000,1.045319
459.50000, 
460.00000,1.046387
460.50000, 
461.00000,1.047684
461.50000, 
462.00000,1.048920
462.50000, 
463.00000,1.050339
463.50000, 
464.00000,1.051926
464.50000, 
465.00000,1.053299
465.50000, 
466.00000,1.055038
466.50000, 
467.00000,1.056900
467.50000, 
468.00000,1.058868
468.50000, 
469.00000,1.060715
469.50000, 
470.00000,1.063217
470.50000, 
471.00000,1.066025
471.50000, 
472.00000,1.069931
472.50000, 
473.00000,1.075226
473.50000, 
474.00000,1.078323
474.50000, 
475.00000,1.078400
475.50000, 
476.00000,1.077728
476.50000, 
477.00000,1.076492
477.50000, 
478.00000,1.074722
478.50000, 
479.00000,1.072235
479.50000, 
480.00000,1.068985
480.50000, 
481.00000,1.064682
481.50000, 
482.00000,1.059860
482.50000, 
483.00000,1.054230
483.50000, 
484.00000,1.047623
484.50000, 
485.00000,1.040588
485.50000, 
486.00000,1.033234
486.50000, 
487.00000,1.025757
487.50000, 
488.00000,1.018768
488.50000, 
489.00000,1.012817
489.50000, 
490.00000,1.007828
490.50000, 
491.00000,1.004059
491.50000, 
492.00000,1.001556
492.50000, 
493.00000,1.000107
493.50000, 
494.00000,1.000076
494.50000, 
495.00000,1.001129
495.50000, 
496.00000,1.002914
496.50000, 
497.00000,1.005417
497.50000, 
498.00000,1.008469
498.50000, 
499.00000,1.012054
499.50000, 
500.00000,1.015518
500.50000, 
501.00000,1.019333
501.50000, 
502.00000,1.023575
502.50000, 
503.00000,1.027573
503.50000, 
504.00000,1.031433
504.50000, 
505.00000,1.035461
505.50000, 
506.00000,1.039322
506.50000, 
507.00000,1.042923
507.50000, 
508.00000,1.046555
508.50000, 
509.00000,1.049744
509.50000, 
510.00000,1.053009
510.50000, 
511.00000,1.055923
511.50000, 
512.00000,1.058685
512.50000, 
513.00000,1.061234
513.50000, 
514.00000,1.063431
514.50000, 
515.00000,1.065521
515.50000, 
516.00000,1.067474
516.50000, 
517.00000,1.069275
517.50000, 
518.00000,1.070679
518.50000, 
519.00000,1.072113
519.50000, 
520.00000,1.073181
520.50000, 
521.00000,1.074081
521.50000, 
522.00000,1.074951
522.50000, 
523.00000,1.075623
523.50000, 
524.00000,1.076218
524.50000, 
525.00000,1.076675
525.50000, 
526.00000,1.076950
526.50000, 
527.00000,1.077209
527.50000, 
528.00000,1.077347
528.50000, 
529.00000,1.077438
529.50000, 
530.00000,1.077576
530.50000, 
531.00000,1.077637
531.50000, 
532.00000,1.077637
532.50000, 
533.00000,1.077606
533.50000, 
534.00000,1.077682
534.50000, 
535.00000,1.077805
535.50000, 
536.00000,1.077255
536.50000, 
537.00000,1.076218
537.50000, 
538.00000,1.076523
538.50000, 
539.00000,1.076965
539.50000, 
540.00000,1.077316
540.50000, 
541.00000,1.077652
541.50000, 
542.00000,1.078110
542.50000, 
543.00000,1.078583
543.50000, 
544.00000,1.079071
544.50000, 
545.00000,1.079620
545.50000, 
546.00000,1.080109
546.50000, 
547.00000,1.080490
547.50000, 
548.00000,1.080963
548.50000, 
549.00000,1.081314
549.50000, 
550.00000,1.081482
550.50000, 
551.00000,1.081665
551.50000, 
552.00000,1.081650
552.50000, 
553.00000,1.081665
553.50000, 
554.00000,1.081299
554.50000, 
555.00000,1.080841
555.50000, 
556.00000,1.080154
556.50000, 
557.00000,1.079117
557.50000, 
558.00000,1.077881
558.50000, 
559.00000,1.076523
559.50000, 
560.00000,1.074997
560.50000, 
561.00000,1.073135
561.50000, 
562.00000,1.071091
562.50000, 
563.00000,1.068893
563.50000, 
564.00000,1.066360
564.50000, 
565.00000,1.063568
565.50000, 
566.00000,1.060760
566.50000, 
567.00000,1.057922
567.50000, 
568.00000,1.054779
568.50000, 
569.00000,1.051514
569.50000, 
570.00000,1.048172
570.50000, 
571.00000,1.044861
571.50000, 
572.00000,1.041489
572.50000, 
573.00000,1.038101
573.50000, 
574.00000,1.034668
574.50000, 
575.00000,1.031082
575.50000, 
576.00000,1.027679
576.50000, 
577.00000,1.024323
577.50000, 
578.00000,1.021011
578.50000, 
579.00000,1.017853
579.50000, 
580.00000,1.014908
580.50000, 
581.00000,1.012161
581.50000, 
582.00000,1.009445
582.50000, 
583.00000,1.007156
583.50000, 
584.00000,1.004883
584.50000, 
585.00000,1.002853
585.50000, 
586.00000,1.001022
586.50000, 
587.00000,0.999390
587.50000, 
588.00000,0.997940
588.50000, 
589.00000,0.996750
589.50000, 
590.00000,0.995819
590.50000, 
591.00000,0.994934
591.50000, 
592.00000,0.994232
592.50000, 
593.00000,0.993546
593.50000, 
594.00000,0.992996
594.50000, 
595.00000,0.992538
595.50000, 
596.00000,0.992081
596.50000, 
597.00000,0.991714
597.50000, 
598.00000,0.991409
598.50000, 
599.00000,0.991028
599.50000, 
600.00000,0.990387
600.50000, 
601.00000,0.989807
601.50000, 
602.00000,0.988953
602.50000, 
603.00000,0.987823
603.50000, 
604.00000,0.986542
604.50000, 
605.00000,0.985077
605.50000, 
606.00000,0.983307
606.50000, 
607.00000,0.981354
607.50000, 
608.00000,0.979080
608.50000, 
609.00000,0.976395
609.50000, 
610.00000,0.973511
610.50000, 
611.00000,0.970444
611.50000, 
612.00000,0.966843
612.50000, 
613.00000,0.963120
613.50000, 
614.00000,0.959167
614.50000, 
615.00000,0.954987
615.50000, 
616.00000,0.950516
616.50000, 
617.00000,0.945770
617.50000, 
618.00000,0.940857
618.50000, 
619.00000,0.935883
619.50000, 
620.00000,0.930832
620.50000, 
621.00000,0.925430
621.50000, 
622.00000,0.919983
622.50000, 
623.00000,0.914536
623.50000, 
624.00000,0.908951
624.50000, 
625.00000,0.903290
625.50000, 
626.00000,0.897797
626.50000, 
627.00000,0.892426
627.50000, 
628.00000,0.887299
628.50000, 
629.00000,0.882294
629.50000, 
630.00000,0.877670
630.50000, 
631.00000,0.873627
631.50000, 
632.00000,0.870255
632.50000, 
633.00000,0.868393
633.50000, 
634.00000,0.868698
634.50000, 
635.00000,0.863464
635.50000, 
636.00000,0.851486
636.50000, 
637.00000,0.837585
637.50000, 
638.00000,0.822769
638.50000, 
639.00000,0.806335
639.50000, 
640.00000,0.790192
640.50000, 
641.00000,0.774704
641.50000, 
642.00000,0.760025
642.50000, 
643.00000,0.746948
643.50000, 
644.00000,0.736130
644.50000, 
645.00000,0.728027
645.50000, 
646.00000,0.722015
646.50000, 
647.00000,0.718307
647.50000, 
648.00000,0.716354
648.50000, 
649.00000,0.715942
649.50000, 
650.00000,0.716553
650.50000, 
651.00000,0.717880
651.50000, 
652.00000,0.719513
652.50000, 
653.00000,0.721390
653.50000, 
654.00000,0.723373
654.50000, 
655.00000,0.725342
655.50000, 
656.00000,0.727188
656.50000, 
657.00000,0.728790
657.50000, 
658.00000,0.730408
658.50000, 
659.00000,0.731689
659.50000, 
660.00000,0.733078
660.50000, 
661.00000,0.734100
661.50000, 
662.00000,0.735153
662.50000, 
663.00000,0.735809
663.50000, 
664.00000,0.736572
664.50000, 
665.00000,0.737167
665.50000, 
666.00000,0.737854
666.50000, 
667.00000,0.738113
667.50000, 
668.00000,0.738541
668.50000, 
669.00000,0.738770
669.50000, 
670.00000,0.739014
670.50000, 
671.00000,0.739090
671.50000, 
672.00000,0.739136
672.50000, 
673.00000,0.739166
673.50000, 
674.00000,0.739166
674.50000, 
675.00000,0.738968
675.50000, 
676.00000,0.738693
676.50000, 
677.00000,0.738525
677.50000, 
678.00000,0.738327
678.50000, 
679.00000,0.738022
679.50000, 
680.00000,0.737579
680.50000, 
681.00000,0.737259
681.50000, 
682.00000,0.736755
682.50000, 
683.00000,0.736435
683.50000, 
684.00000,0.735962
684.50000, 
685.00000,0.735458
685.50000, 
686.00000,0.734940
686.50000, 
687.00000,0.734406
687.50000, 
688.00000,0.733780
688.50000, 
689.00000,0.733215
689.50000, 
690.00000,0.732635
690.50000, 
691.00000,0.731949
691.50000, 
692.00000,0.731415
692.50000, 
693.00000,0.730728
693.50000, 
694.00000,0.730240
694.50000, 
695.00000,0.729324
695.50000, 
696.00000,0.728714
696.50000, 
697.00000,0.727875
697.50000, 
698.00000,0.727371
698.50000, 
699.00000,0.726517
699.50000, 
700.00000,0.725861
700.50000, 
701.00000,0.724930
701.50000, 
702.00000,0.724380
702.50000, 
703.00000,0.723465
703.50000, 
704.00000,0.722824
704.50000, 
705.00000,0.721802
705.50000, 
706.00000,0.721161
706.50000, 
707.00000,0.720108
707.50000, 
708.00000,0.719376
708.50000, 
709.00000,0.718567
709.50000, 
710.00000,0.717621
710.50000, 
711.00000,0.716934
711.50000, 
712.00000,0.715759
712.50000, 
713.00000,0.715103
713.50000, 
714.00000,0.713974
714.50000, 
715.00000,0.713303
715.50000, 
716.00000,0.712112
716.50000, 
717.00000,0.711258
717.50000, 
718.00000,0.710220
718.50000, 
719.00000,0.709183
719.50000, 
720.00000,0.708344
720.50000, 
721.00000,0.707245
721.50000, 
722.00000,0.706512
722.50000, 
723.00000,0.705185
723.50000, 
724.00000,0.704407
724.50000, 
725.00000,0.703232
725.50000, 
726.00000,0.702377
726.50000, 
727.00000,0.701263
727.50000, 
728.00000,0.700302
728.50000, 
729.00000,0.699432
729.50000, 
730.00000,0.698273
730.50000, 
731.00000,0.697617
731.50000, 
732.00000,0.696426
732.50000, 
733.00000,0.695724
733.50000, 
734.00000,0.694626
734.50000, 
735.00000,0.693680
735.50000, 
736.00000,0.692963
736.50000, 
737.00000,0.691803
737.50000, 
738.00000,0.691162
738.50000, 
739.00000,0.690109
739.50000, 
740.00000,0.689102
740.50000, 
741.00000,0.688263
741.50000, 
742.00000,0.687149
742.50000, 
743.00000,0.686493
743.50000, 
744.00000,0.685318
744.50000, 
745.00000,0.684616
745.50000, 
746.00000,0.683502
746.50000, 
747.00000,0.682434
747.50000, 
748.00000,0.681503
748.50000, 
749.00000,0.680405
749.50000, 
750.00000,0.679840
750.50000, 
751.00000,0.678711
751.50000, 
752.00000,0.677872
752.50000, 
753.00000,0.677063
753.50000, 
754.00000,0.675995
754.50000, 
755.00000,0.675476
755.50000, 
756.00000,0.674347
756.50000, 
757.00000,0.673508
757.50000, 
758.00000,0.672760
758.50000, 
759.00000,0.671524
759.50000, 
760.00000,0.671219
760.50000, 
761.00000,0.670273
761.50000, 
762.00000,0.669403
762.50000, 
763.00000,0.668808
763.50000, 
764.00000,0.667587
764.50000, 
765.00000,0.666992
765.50000, 
766.00000,0.665970
766.50000, 
767.00000,0.665222
767.50000, 
768.00000,0.664536
768.50000, 
769.00000,0.663513
769.50000, 
770.00000,0.662842
770.50000, 
771.00000,0.661850
771.50000, 
772.00000,0.661026
772.50000, 
773.00000,0.660446
773.50000, 
774.00000,0.659332
774.50000, 
775.00000,0.658752
775.50000, 
776.00000,0.657928
776.50000, 
777.00000,0.656921
777.50000, 
778.00000,0.656509
778.50000, 
779.00000,0.655396
779.50000, 
780.00000,0.654739
780.50000, 
781.00000,0.654144
781.50000, 
782.00000,0.653183
782.50000, 
783.00000,0.652588
783.50000, 
784.00000,0.651840
784.50000, 
785.00000,0.650711
785.50000, 
786.00000,0.650406
786.50000, 
787.00000,0.649384
787.50000, 
788.00000,0.648651
788.50000, 
789.00000,0.648071
789.50000, 
790.00000,0.647049
790.50000, 
791.00000,0.646408
791.50000, 
792.00000,0.645584
792.50000, 
793.00000,0.644531
793.50000, 
794.00000,0.644012
794.50000, 
795.00000,0.643112
795.50000, 
796.00000,0.642319
796.50000, 
797.00000,0.641800
797.50000, 
798.00000,0.640579
798.50000, 
799.00000,0.639969
799.50000, 
800.00000,0.639191
800.50000, 
801.00000,0.638138
801.50000, 
802.00000,0.637421
802.50000, 
803.00000,0.636688
803.50000, 
804.00000,0.635468
804.50000, 
805.00000,0.635010
805.50000, 
806.00000,0.634018
806.50000, 
807.00000,0.632935
807.50000, 
808.00000,0.632355
808.50000, 
809.00000,0.631165
809.50000, 
810.00000,0.630051
810.50000, 
811.00000,0.629272
811.50000, 
812.00000,0.628006
812.50000, 
813.00000,0.626999
813.50000, 
814.00000,0.626190
814.50000, 
815.00000,0.624878
815.50000, 
816.00000,0.623840
816.50000, 
817.00000,0.622818
817.50000, 
818.00000,0.621292
818.50000, 
819.00000,0.620438
819.50000, 
820.00000,0.619354
820.50000, 
821.00000,0.617737
821.50000, 
822.00000,0.616867
822.50000, 
823.00000,0.615570
823.50000, 
824.00000,0.614075
824.50000, 
825.00000,0.612961
825.50000, 
826.00000,0.611908
826.50000, 
827.00000,0.610107
827.50000, 
828.00000,0.609039
828.50000, 
829.00000,0.607697
829.50000, 
830.00000,0.606232
830.50000, 
831.00000,0.604813
831.50000, 
832.00000,0.603439
832.50000, 
833.00000,0.601715
833.50000, 
834.00000,0.600327
834.50000, 
835.00000,0.598969
835.50000, 
836.00000,0.597076
836.50000, 
837.00000,0.595612
837.50000, 
838.00000,0.594070
838.50000, 
839.00000,0.592300
839.50000, 
840.00000,0.590683
840.50000, 
841.00000,0.589386
841.50000, 
842.00000,0.587418
842.50000, 
843.00000,0.585922
843.50000, 
844.00000,0.584335
844.50000, 
845.00000,0.582550
845.50000, 
846.00000,0.580902
846.50000, 
847.00000,0.579453
847.50000, 
848.00000,0.577728
848.50000, 
849.00000,0.575867
849.50000, 
850.00000,0.574448
850.50000, 
851.00000,0.572495
851.50000, 
852.00000,0.570892
852.50000, 
853.00000,0.569290
853.50000, 
854.00000,0.567474
854.50000, 
855.00000,0.565506
855.50000, 
856.00000,0.563980
856.50000, 
857.00000,0.562408
857.50000, 
858.00000,0.560333
858.50000, 
859.00000,0.558838
859.50000, 
860.00000,0.557022
860.50000, 
861.00000,0.555283
861.50000, 
862.00000,0.553665
862.50000, 
863.00000,0.552063
863.50000, 
864.00000,0.550262
864.50000, 
865.00000,0.548599
865.50000, 
866.00000,0.547180
866.50000, 
867.00000,0.545349
867.50000, 
868.00000,0.543930
868.50000, 
869.00000,0.542389
869.50000, 
870.00000,0.540771
870.50000, 
871.00000,0.539169
871.50000, 
872.00000,0.537735
872.50000, 
873.00000,0.536392
873.50000, 
874.00000,0.534653
874.50000, 
875.00000,0.533310
875.50000, 
876.00000,0.531906
876.50000, 
877.00000,0.530334
877.50000, 
878.00000,0.528992
878.50000, 
879.00000,0.527542
879.50000, 
880.00000,0.526184
880.50000, 
881.00000,0.524582
881.50000, 
882.00000,0.523315
882.50000, 
883.00000,0.521957
883.50000, 
884.00000,0.520493
884.50000, 
885.00000,0.519348
885.50000, 
886.00000,0.518051
886.50000, 
887.00000,0.516907
887.50000, 
888.00000,0.515549
888.50000, 
889.00000,0.514435
889.50000, 
890.00000,0.513336
890.50000, 
891.00000,0.511993
891.50000, 
892.00000,0.511124
892.50000, 
893.00000,0.510086
893.50000, 
894.00000,0.508881
894.50000, 
895.00000,0.508041
895.50000, 
896.00000,0.507004
896.50000, 
897.00000,0.505981
897.50000, 
898.00000,0.504990
898.50000, 
899.00000,0.504105
899.50000, 
900.00000,0.503418
900.50000, 
901.00000, 
901.50000, 
902.00000, 
902.50000, 
903.00000, 
903.50000, 
904.00000, 
904.50000, 
905.00000, 
905.50000, 
906.00000, 
906.50000, 
907.00000, 
907.50000, 
908.00000, 
908.50000, 
909.00000, 
909.50000, 
910.00000, 
910.50000, 
911.00000, 
911.50000, 
912.00000, 
912.50000, 
913.00000, 
913.50000, 
914.00000, 
914.50000, 
915.00000, 
915.50000, 
916.00000, 
916.50000, 
917.00000, 
917.50000, 
918.00000, 
918.50000, 
919.00000, 
919.50000, 
920.00000, 
920.50000, 
921.00000, 
921.50000, 
922.00000, 
922.50000, 
923.00000, 
923.50000, 
924.00000, 
924.50000, 
925.00000, 
925.50000, 
926.00000, 
926.50000, 
927.00000, 
927.50000, 
928.00000, 
928.50000, 
929.00000, 
929.50000, 
930.00000, 
930.50000, 
931.00000, 
931.50000, 
932.00000, 
932.50000, 
933.00000, 
933.50000, 
934.00000, 
934.50000, 
935.00000, 
935.50000, 
936.00000, 
936.50000, 
937.00000, 
937.50000, 
938.00000, 
938.50000, 
939.00000, 
939.50000, 
940.00000, 
940.50000, 
941.00000, 
941.50000, 
942.00000, 
942.50000, 
943.00000, 
943.50000, 
944.00000, 
944.50000, 
945.00000, 
945.50000, 
946.00000, 
946.50000, 
947.00000, 
947.50000, 
948.00000, 
948.50000, 
949.00000, 
949.50000, 
950.00000, 
950.50000, 
951.00000, 
951.50000, 
952.00000, 
952.50000, 
953.00000, 
953.50000, 
954.00000, 
954.50000, 
955.00000, 
955.50000, 
956.00000, 
956.50000, 
957.00000, 
957.50000, 
958.00000, 
958.50000, 
959.00000, 
959.50000, 
960.00000, 
960.50000, 
961.00000, 
961.50000, 
962.00000, 
962.50000, 
963.00000, 
963.50000, 
964.00000, 
964.50000, 
965.00000, 
965.50000, 
966.00000, 
966.50000, 
967.00000, 
967.50000, 
968.00000, 
968.50000, 
969.00000, 
969.50000, 
970.00000, 
970.50000, 
971.00000, 
971.50000, 
972.00000, 
972.50000, 
973.00000, 
973.50000, 
974.00000, 
974.50000, 
975.00000, 
975.50000, 
976.00000, 
976.50000, 
977.00000, 
977.50000, 
978.00000, 
978.50000, 
979.00000, 
979.50000, 
980.00000, 
980.50000, 
981.00000, 
981.50000, 
982.00000, 
982.50000, 
983.00000, 
983.50000, 
984.00000, 
984.50000, 
985.00000, 
985.50000, 
986.00000, 
986.50000, 
987.00000, 
987.50000, 
988.00000, 
988.50000, 
989.00000, 
989.50000, 
990.00000, 
990.50000, 
991.00000, 
991.50000, 
992.00000, 
992.50000, 
993.00000, 
993.50000, 
994.00000, 
994.50000, 
995.00000, 
995.50000, 
996.00000, 
996.50000, 
997.00000, 
997.50000, 
998.00000, 
998.50000, 
999.00000, 
999.50000, 
1000.00000, 
1000.50000, 
1001.00000, 
1001.50000, 
1002.00000, 
1002.50000, 
1003.00000, 
1003.50000, 
1004.00000, 
1004.50000, 
1005.00000, 
1005.50000, 
1006.00000, 
1006.50000, 
1007.00000, 
1007.50000, 
1008.00000, 
1008.50000, 
1009.00000, 
1009.50000, 
1010.00000, 
1010.50000, 
1011.00000, 
1011.50000, 
1012.00000, 
1012.50000, 
1013.00000, 
1013.50000, 
1014.00000, 
1014.50000, 
1015.00000, 
1015.50000, 
1016.00000, 
1016.50000, 
1017.00000, 
1017.50000, 
1018.00000, 
1018.50000, 
1019.00000, 
1019.50000, 
1020.00000, 
1020.50000, 
1021.00000, 
1021.50000, 
1022.00000, 
1022.50000, 
1023.00000, 
1023.50000, 
1024.00000, 
1024.50000, 
1025.00000, 
1025.50000, 
1026.00000, 
1026.50000, 
1027.00000, 
1027.50000, 
1028.00000, 
1028.50000, 
1029.00000, 
1029.50000, 
1030.00000, 
1030.50000, 
1031.00000, 
1031.50000, 
1032.00000, 
1032.50000, 
1033.00000, 
1033.50000, 
1034.00000, 
1034.50000, 
1035.00000, 
1035.50000, 
1036.00000, 
1036.50000, 
1037.00000, 
1037.50000, 
1038.00000, 
1038.50000, 
1039.00000, 
1039.50000, 
1040.00000, 
1040.50000, 
1041.00000, 
1041.50000, 
1042.00000, 
1042.50000, 
1043.00000, 
1043.50000, 
1044.00000, 
1044.50000, 
1045.00000, 
1045.50000, 
1046.00000, 
1046.50000, 
1047.00000, 
1047.50000, 
1048.00000, 
1048.50000, 
1049.00000, 
1049.50000, 
1050.00000, 
1050.50000, 
1051.00000, 
1051.50000, 
1052.00000, 
1052.50000, 
1053.00000, 
1053.50000, 
1054.00000, 
1054.50000, 
1055.00000, 
1055.50000, 
1056.00000, 
1056.50000, 
1057.00000, 
1057.50000, 
1058.00000, 
1058.50000, 
1059.00000, 
1059.50000, 
1060.00000, 
1060.50000, 
1061.00000, 
1061.50000, 
1062.00000, 
1062.50000, 
1063.00000, 
1063.50000, 
1064.00000, 
1064.50000, 
1065.00000, 
1065.50000, 
1066.00000, 
1066.50000, 
1067.00000, 
1067.50000, 
1068.00000, 
1068.50000, 
1069.00000, 
1069.50000, 
1070.00000, 
1070.50000, 
1071.00000, 
1071.50000, 
1072.00000, 
1072.50000, 
1073.00000, 
1073.50000, 
1074.00000, 
1074.50000, 
1075.00000, 
1075.50000, 
1076.00000, 
1076.50000, 
1077.00000, 
1077.50000, 
1078.00000, 
1078.50000, 
1079.00000, 
1079.50000, 
1080.00000, 
1080.50000, 
1081.00000, 
1081.50000, 
1082.00000, 
1082.50000, 
1083.00000, 
1083.50000, 
1084.00000, 
1084.50000, 
1085.00000, 
1085.50000, 
1086.00000, 
1086.50000, 
1087.00000, 
1087.50000, 
1088.00000, 
1088.50000, 
1089.00000, 
1089.50000, 
1090.00000, 
1090.50000, 
1091.00000, 
1091.50000, 
1092.00000, 
1092.50000, 
1093.00000, 
1093.50000, 
1094.00000, 
1094.50000, 
1095.00000, 
1095.50000, 
1096.00000, 
1096.50000, 
1097.00000, 
1097.50000, 
1098.00000, 
1098.50000, 
1099.00000, 
1099.50000, 
1100.00000, 
