"0% - RawData"
"Wavelength nm.","Abs."
300.00000,0.719269
300.50000, 
301.00000,0.715302
301.50000, 
302.00000,0.709991
302.50000, 
303.00000,0.705063
303.50000, 
304.00000,0.700455
304.50000, 
305.00000,0.695404
305.50000, 
306.00000,0.688919
306.50000, 
307.00000,0.683517
307.50000, 
308.00000,0.679504
308.50000, 
309.00000,0.675140
309.50000, 
310.00000,0.671494
310.50000, 
311.00000,0.667801
311.50000, 
312.00000,0.663528
312.50000, 
313.00000,0.660233
313.50000, 
314.00000,0.657104
314.50000, 
315.00000,0.654160
315.50000, 
316.00000,0.651596
316.50000, 
317.00000,0.649429
317.50000, 
318.00000,0.647202
318.50000, 
319.00000,0.645172
319.50000, 
320.00000,0.643646
320.50000, 
321.00000,0.642761
321.50000, 
322.00000,0.641937
322.50000, 
323.00000,0.641983
323.50000, 
324.00000,0.641449
324.50000, 
325.00000,0.641144
325.50000, 
326.00000,0.641083
326.50000, 
327.00000,0.641312
327.50000, 
328.00000,0.641617
328.50000, 
329.00000,0.641785
329.50000, 
330.00000,0.642502
330.50000, 
331.00000,0.642654
331.50000, 
332.00000,0.642975
332.50000, 
333.00000,0.642502
333.50000, 
334.00000,0.641663
334.50000, 
335.00000,0.640823
335.50000, 
336.00000,0.638321
336.50000, 
337.00000,0.637375
337.50000, 
338.00000,0.635651
338.50000, 
339.00000,0.633499
339.50000, 
340.00000,0.630920
340.50000, 
341.00000,0.630249
341.50000, 
342.00000,0.627823
342.50000, 
343.00000,0.623077
343.50000, 
344.00000,0.619629
344.50000, 
345.00000,0.615585
345.50000, 
346.00000,0.611542
346.50000, 
347.00000,0.606888
347.50000, 
348.00000,0.602509
348.50000, 
349.00000,0.598877
349.50000, 
350.00000,0.594589
350.50000, 
351.00000,0.590515
351.50000, 
352.00000,0.585449
352.50000, 
353.00000,0.581161
353.50000, 
354.00000,0.576889
354.50000, 
355.00000,0.572876
355.50000, 
356.00000,0.568146
356.50000, 
357.00000,0.563248
357.50000, 
358.00000,0.559357
358.50000, 
359.00000,0.556061
359.50000, 
360.00000,0.551590
360.50000, 
361.00000,0.548462
361.50000, 
362.00000,0.544281
362.50000, 
363.00000,0.541733
363.50000, 
364.00000,0.538788
364.50000, 
365.00000,0.535767
365.50000, 
366.00000,0.532410
366.50000, 
367.00000,0.529785
367.50000, 
368.00000,0.526062
368.50000, 
369.00000,0.523071
369.50000, 
370.00000,0.520157
370.50000, 
371.00000,0.517227
371.50000, 
372.00000,0.514191
372.50000, 
373.00000,0.511169
373.50000, 
374.00000,0.508224
374.50000, 
375.00000,0.505234
375.50000, 
376.00000,0.502655
376.50000, 
377.00000,0.499420
377.50000, 
378.00000,0.496735
378.50000, 
379.00000,0.493866
379.50000, 
380.00000,0.491348
380.50000, 
381.00000,0.488983
381.50000, 
382.00000,0.486801
382.50000, 
383.00000,0.484329
383.50000, 
384.00000,0.482605
384.50000, 
385.00000,0.480316
385.50000, 
386.00000,0.478256
386.50000, 
387.00000,0.476624
387.50000, 
388.00000,0.474411
388.50000, 
389.00000,0.472397
389.50000, 
390.00000,0.470932
390.50000, 
391.00000,0.469177
391.50000, 
392.00000,0.467529
392.50000, 
393.00000,0.466263
393.50000, 
394.00000,0.464600
394.50000, 
395.00000,0.463135
395.50000, 
396.00000,0.461792
396.50000, 
397.00000,0.460464
397.50000, 
398.00000,0.458862
398.50000, 
399.00000,0.457245
399.50000, 
400.00000,0.455902
400.50000, 
401.00000,0.454697
401.50000, 
402.00000,0.453674
402.50000, 
403.00000,0.452545
403.50000, 
404.00000,0.451660
404.50000, 
405.00000,0.451019
405.50000, 
406.00000,0.450394
406.50000, 
407.00000,0.449966
407.50000, 
408.00000,0.449585
408.50000, 
409.00000,0.449280
409.50000, 
410.00000,0.448914
410.50000, 
411.00000,0.448608
411.50000, 
412.00000,0.448425
412.50000, 
413.00000,0.448105
413.50000, 
414.00000,0.447983
414.50000, 
415.00000,0.447784
415.50000, 
416.00000,0.447052
416.50000, 
417.00000,0.443970
417.50000, 
418.00000,0.443130
418.50000, 
419.00000,0.442886
419.50000, 
420.00000,0.442657
420.50000, 
421.00000,0.442551
421.50000, 
422.00000,0.442307
422.50000, 
423.00000,0.442337
423.50000, 
424.00000,0.442245
424.50000, 
425.00000,0.442062
425.50000, 
426.00000,0.442200
426.50000, 
427.00000,0.442383
427.50000, 
428.00000,0.442657
428.50000, 
429.00000,0.443054
429.50000, 
430.00000,0.443588
430.50000, 
431.00000,0.444229
431.50000, 
432.00000,0.444855
432.50000, 
433.00000,0.445404
433.50000, 
434.00000,0.446014
434.50000, 
435.00000,0.446487
435.50000, 
436.00000,0.447006
436.50000, 
437.00000,0.447372
437.50000, 
438.00000,0.447601
438.50000, 
439.00000,0.447845
439.50000, 
440.00000,0.448029
440.50000, 
441.00000,0.448288
441.50000, 
442.00000,0.448547
442.50000, 
443.00000,0.448822
443.50000, 
444.00000,0.449127
444.50000, 
445.00000,0.449402
445.50000, 
446.00000,0.449677
446.50000, 
447.00000,0.450073
447.50000, 
448.00000,0.450455
448.50000, 
449.00000,0.450821
449.50000, 
450.00000,0.451294
450.50000, 
451.00000,0.451645
451.50000, 
452.00000,0.452087
452.50000, 
453.00000,0.452469
453.50000, 
454.00000,0.452972
454.50000, 
455.00000,0.453522
455.50000, 
456.00000,0.454025
456.50000, 
457.00000,0.454453
457.50000, 
458.00000,0.455002
458.50000, 
459.00000,0.455475
459.50000, 
460.00000,0.456039
460.50000, 
461.00000,0.456467
461.50000, 
462.00000,0.456955
462.50000, 
463.00000,0.457474
463.50000, 
464.00000,0.457947
464.50000, 
465.00000,0.458328
465.50000, 
466.00000,0.458725
466.50000, 
467.00000,0.459076
467.50000, 
468.00000,0.459396
468.50000, 
469.00000,0.459778
469.50000, 
470.00000,0.460190
470.50000, 
471.00000,0.460556
471.50000, 
472.00000,0.460968
472.50000, 
473.00000,0.461380
473.50000, 
474.00000,0.461456
474.50000, 
475.00000,0.461700
475.50000, 
476.00000,0.461899
476.50000, 
477.00000,0.462067
477.50000, 
478.00000,0.462250
478.50000, 
479.00000,0.462341
479.50000, 
480.00000,0.462204
480.50000, 
481.00000,0.462234
481.50000, 
482.00000,0.462234
482.50000, 
483.00000,0.462082
483.50000, 
484.00000,0.461823
484.50000, 
485.00000,0.461578
485.50000, 
486.00000,0.461273
486.50000, 
487.00000,0.460663
487.50000, 
488.00000,0.460327
488.50000, 
489.00000,0.459946
489.50000, 
490.00000,0.459518
490.50000, 
491.00000,0.459244
491.50000, 
492.00000,0.458984
492.50000, 
493.00000,0.458832
493.50000, 
494.00000,0.458786
494.50000, 
495.00000,0.458572
495.50000, 
496.00000,0.458405
496.50000, 
497.00000,0.458313
497.50000, 
498.00000,0.458145
498.50000, 
499.00000,0.457901
499.50000, 
500.00000,0.457520
500.50000, 
501.00000,0.457153
501.50000, 
502.00000,0.456757
502.50000, 
503.00000,0.456345
503.50000, 
504.00000,0.455811
504.50000, 
505.00000,0.455200
505.50000, 
506.00000,0.454544
506.50000, 
507.00000,0.453888
507.50000, 
508.00000,0.453201
508.50000, 
509.00000,0.452377
509.50000, 
510.00000,0.451721
510.50000, 
511.00000,0.451050
511.50000, 
512.00000,0.450027
512.50000, 
513.00000,0.449142
513.50000, 
514.00000,0.448181
514.50000, 
515.00000,0.447159
515.50000, 
516.00000,0.446075
516.50000, 
517.00000,0.445023
517.50000, 
518.00000,0.443878
518.50000, 
519.00000,0.442795
519.50000, 
520.00000,0.441696
520.50000, 
521.00000,0.440475
521.50000, 
522.00000,0.439117
522.50000, 
523.00000,0.437805
523.50000, 
524.00000,0.436539
524.50000, 
525.00000,0.435303
525.50000, 
526.00000,0.433960
526.50000, 
527.00000,0.432480
527.50000, 
528.00000,0.431091
528.50000, 
529.00000,0.429764
529.50000, 
530.00000,0.428360
530.50000, 
531.00000,0.426910
531.50000, 
532.00000,0.425583
532.50000, 
533.00000,0.424179
533.50000, 
534.00000,0.422836
534.50000, 
535.00000,0.421494
535.50000, 
536.00000,0.420135
536.50000, 
537.00000,0.420044
537.50000, 
538.00000,0.418991
538.50000, 
539.00000,0.417648
539.50000, 
540.00000,0.416458
540.50000, 
541.00000,0.415192
541.50000, 
542.00000,0.413803
542.50000, 
543.00000,0.412460
543.50000, 
544.00000,0.411102
544.50000, 
545.00000,0.409821
545.50000, 
546.00000,0.408463
546.50000, 
547.00000,0.407074
547.50000, 
548.00000,0.405762
548.50000, 
549.00000,0.404312
549.50000, 
550.00000,0.402710
550.50000, 
551.00000,0.401093
551.50000, 
552.00000,0.399307
552.50000, 
553.00000,0.397690
553.50000, 
554.00000,0.395828
554.50000, 
555.00000,0.393906
555.50000, 
556.00000,0.392014
556.50000, 
557.00000,0.389954
557.50000, 
558.00000,0.387817
558.50000, 
559.00000,0.385635
559.50000, 
560.00000,0.383514
560.50000, 
561.00000,0.381180
561.50000, 
562.00000,0.378906
562.50000, 
563.00000,0.376572
563.50000, 
564.00000,0.374115
564.50000, 
565.00000,0.371552
565.50000, 
566.00000,0.369202
566.50000, 
567.00000,0.366714
567.50000, 
568.00000,0.364166
568.50000, 
569.00000,0.361618
569.50000, 
570.00000,0.359070
570.50000, 
571.00000,0.356506
571.50000, 
572.00000,0.354004
572.50000, 
573.00000,0.351563
573.50000, 
574.00000,0.349182
574.50000, 
575.00000,0.346451
575.50000, 
576.00000,0.343842
576.50000, 
577.00000,0.341385
577.50000, 
578.00000,0.338989
578.50000, 
579.00000,0.336716
579.50000, 
580.00000,0.334534
580.50000, 
581.00000,0.332321
581.50000, 
582.00000,0.330307
582.50000, 
583.00000,0.328445
583.50000, 
584.00000,0.326569
584.50000, 
585.00000,0.324615
585.50000, 
586.00000,0.322845
586.50000, 
587.00000,0.321198
587.50000, 
588.00000,0.319672
588.50000, 
589.00000,0.318222
589.50000, 
590.00000,0.316849
590.50000, 
591.00000,0.315399
591.50000, 
592.00000,0.314026
592.50000, 
593.00000,0.312637
593.50000, 
594.00000,0.311310
594.50000, 
595.00000,0.309830
595.50000, 
596.00000,0.308517
596.50000, 
597.00000,0.307220
597.50000, 
598.00000,0.305740
598.50000, 
599.00000,0.304169
599.50000, 
600.00000,0.302582
600.50000, 
601.00000,0.300949
601.50000, 
602.00000,0.299072
602.50000, 
603.00000,0.297134
603.50000, 
604.00000,0.295044
604.50000, 
605.00000,0.292786
605.50000, 
606.00000,0.290375
606.50000, 
607.00000,0.287903
607.50000, 
608.00000,0.285461
608.50000, 
609.00000,0.282745
609.50000, 
610.00000,0.279861
610.50000, 
611.00000,0.277084
611.50000, 
612.00000,0.274033
612.50000, 
613.00000,0.270844
613.50000, 
614.00000,0.267776
614.50000, 
615.00000,0.264465
615.50000, 
616.00000,0.261169
616.50000, 
617.00000,0.257874
617.50000, 
618.00000,0.254501
618.50000, 
619.00000,0.251022
619.50000, 
620.00000,0.247467
620.50000, 
621.00000,0.243942
621.50000, 
622.00000,0.240234
622.50000, 
623.00000,0.236481
623.50000, 
624.00000,0.232742
624.50000, 
625.00000,0.229034
625.50000, 
626.00000,0.225525
626.50000, 
627.00000,0.222031
627.50000, 
628.00000,0.218430
628.50000, 
629.00000,0.214874
629.50000, 
630.00000,0.211533
630.50000, 
631.00000,0.208206
631.50000, 
632.00000,0.204910
632.50000, 
633.00000,0.201736
633.50000, 
634.00000,0.198608
634.50000, 
635.00000,0.196320
635.50000, 
636.00000,0.194168
636.50000, 
637.00000,0.191589
637.50000, 
638.00000,0.188995
638.50000, 
639.00000,0.186325
639.50000, 
640.00000,0.183868
640.50000, 
641.00000,0.181458
641.50000, 
642.00000,0.178894
642.50000, 
643.00000,0.176270
643.50000, 
644.00000,0.173767
644.50000, 
645.00000,0.171341
645.50000, 
646.00000,0.169067
646.50000, 
647.00000,0.166962
647.50000, 
648.00000,0.165115
648.50000, 
649.00000,0.163391
649.50000, 
650.00000,0.162003
650.50000, 
651.00000,0.160538
651.50000, 
652.00000,0.159073
652.50000, 
653.00000,0.157684
653.50000, 
654.00000,0.156418
654.50000, 
655.00000,0.155197
655.50000, 
656.00000,0.154037
656.50000, 
657.00000,0.152908
657.50000, 
658.00000,0.151840
658.50000, 
659.00000,0.150772
659.50000, 
660.00000,0.149704
660.50000, 
661.00000,0.148804
661.50000, 
662.00000,0.147827
662.50000, 
663.00000,0.146957
663.50000, 
664.00000,0.146149
664.50000, 
665.00000,0.145386
665.50000, 
666.00000,0.144577
666.50000, 
667.00000,0.143890
667.50000, 
668.00000,0.143173
668.50000, 
669.00000,0.142441
669.50000, 
670.00000,0.141876
670.50000, 
671.00000,0.141266
671.50000, 
672.00000,0.140533
672.50000, 
673.00000,0.140015
673.50000, 
674.00000,0.139435
674.50000, 
675.00000,0.138931
675.50000, 
676.00000,0.138474
676.50000, 
677.00000,0.137894
677.50000, 
678.00000,0.137283
678.50000, 
679.00000,0.136795
679.50000, 
680.00000,0.136398
680.50000, 
681.00000,0.135986
681.50000, 
682.00000,0.135590
682.50000, 
683.00000,0.135040
683.50000, 
684.00000,0.134705
684.50000, 
685.00000,0.134384
685.50000, 
686.00000,0.134064
686.50000, 
687.00000,0.133698
687.50000, 
688.00000,0.133362
688.50000, 
689.00000,0.133118
689.50000, 
690.00000,0.132874
690.50000, 
691.00000,0.132629
691.50000, 
692.00000,0.132446
692.50000, 
693.00000,0.132111
693.50000, 
694.00000,0.131851
694.50000, 
695.00000,0.131653
695.50000, 
696.00000,0.131378
696.50000, 
697.00000,0.131226
697.50000, 
698.00000,0.131119
698.50000, 
699.00000,0.130783
699.50000, 
700.00000,0.130539
700.50000, 
701.00000,0.130463
701.50000, 
702.00000,0.130325
702.50000, 
703.00000,0.130081
703.50000, 
704.00000,0.129929
704.50000, 
705.00000,0.129791
705.50000, 
706.00000,0.129578
706.50000, 
707.00000,0.129318
707.50000, 
708.00000,0.128998
708.50000, 
709.00000,0.128738
709.50000, 
710.00000,0.128418
710.50000, 
711.00000,0.128021
711.50000, 
712.00000,0.127609
712.50000, 
713.00000,0.127121
713.50000, 
714.00000,0.126755
714.50000, 
715.00000,0.126328
715.50000, 
716.00000,0.125839
716.50000, 
717.00000,0.125336
717.50000, 
718.00000,0.124847
718.50000, 
719.00000,0.124435
719.50000, 
720.00000,0.123993
720.50000, 
721.00000,0.123489
721.50000, 
722.00000,0.123001
722.50000, 
723.00000,0.122543
723.50000, 
724.00000,0.122040
724.50000, 
725.00000,0.121643
725.50000, 
726.00000,0.121216
726.50000, 
727.00000,0.120850
727.50000, 
728.00000,0.120499
728.50000, 
729.00000,0.120071
729.50000, 
730.00000,0.119751
730.50000, 
731.00000,0.119476
731.50000, 
732.00000,0.119064
732.50000, 
733.00000,0.118713
733.50000, 
734.00000,0.118469
734.50000, 
735.00000,0.118271
735.50000, 
736.00000,0.117981
736.50000, 
737.00000,0.117722
737.50000, 
738.00000,0.117462
738.50000, 
739.00000,0.117111
739.50000, 
740.00000,0.116913
740.50000, 
741.00000,0.116714
741.50000, 
742.00000,0.116455
742.50000, 
743.00000,0.116272
743.50000, 
744.00000,0.116013
744.50000, 
745.00000,0.115784
745.50000, 
746.00000,0.115387
746.50000, 
747.00000,0.115128
747.50000, 
748.00000,0.114838
748.50000, 
749.00000,0.114548
749.50000, 
750.00000,0.114319
750.50000, 
751.00000,0.114120
751.50000, 
752.00000,0.113953
752.50000, 
753.00000,0.113754
753.50000, 
754.00000,0.113510
754.50000, 
755.00000,0.113297
755.50000, 
756.00000,0.113022
756.50000, 
757.00000,0.112762
757.50000, 
758.00000,0.112579
758.50000, 
759.00000,0.112457
759.50000, 
760.00000,0.112289
760.50000, 
761.00000,0.112000
761.50000, 
762.00000,0.111786
762.50000, 
763.00000,0.111618
763.50000, 
764.00000,0.111450
764.50000, 
765.00000,0.111191
765.50000, 
766.00000,0.111023
766.50000, 
767.00000,0.110840
767.50000, 
768.00000,0.110672
768.50000, 
769.00000,0.110458
769.50000, 
770.00000,0.110321
770.50000, 
771.00000,0.110260
771.50000, 
772.00000,0.110031
772.50000, 
773.00000,0.109787
773.50000, 
774.00000,0.109619
774.50000, 
775.00000,0.109467
775.50000, 
776.00000,0.109314
776.50000, 
777.00000,0.109161
777.50000, 
778.00000,0.108963
778.50000, 
779.00000,0.108887
779.50000, 
780.00000,0.108673
780.50000, 
781.00000,0.108505
781.50000, 
782.00000,0.108429
782.50000, 
783.00000,0.108246
783.50000, 
784.00000,0.108154
784.50000, 
785.00000,0.108078
785.50000, 
786.00000,0.107880
786.50000, 
787.00000,0.107666
787.50000, 
788.00000,0.107544
788.50000, 
789.00000,0.107391
789.50000, 
790.00000,0.107300
790.50000, 
791.00000,0.107162
791.50000, 
792.00000,0.107040
792.50000, 
793.00000,0.106857
793.50000, 
794.00000,0.106674
794.50000, 
795.00000,0.106567
795.50000, 
796.00000,0.106491
796.50000, 
797.00000,0.106384
797.50000, 
798.00000,0.106308
798.50000, 
799.00000,0.106140
799.50000, 
800.00000,0.106094
800.50000, 
801.00000,0.105865
801.50000, 
802.00000,0.105713
802.50000, 
803.00000,0.105621
803.50000, 
804.00000,0.105591
804.50000, 
805.00000,0.105576
805.50000, 
806.00000,0.105347
806.50000, 
807.00000,0.105164
807.50000, 
808.00000,0.105118
808.50000, 
809.00000,0.105133
809.50000, 
810.00000,0.104965
810.50000, 
811.00000,0.104874
811.50000, 
812.00000,0.104736
812.50000, 
813.00000,0.104599
813.50000, 
814.00000,0.104492
814.50000, 
815.00000,0.104340
815.50000, 
816.00000,0.104263
816.50000, 
817.00000,0.104172
817.50000, 
818.00000,0.103943
818.50000, 
819.00000,0.103821
819.50000, 
820.00000,0.103821
820.50000, 
821.00000,0.103760
821.50000, 
822.00000,0.103485
822.50000, 
823.00000,0.103439
823.50000, 
824.00000,0.103271
824.50000, 
825.00000,0.103333
825.50000, 
826.00000,0.103119
826.50000, 
827.00000,0.103165
827.50000, 
828.00000,0.102936
828.50000, 
829.00000,0.102951
829.50000, 
830.00000,0.102753
830.50000, 
831.00000,0.102829
831.50000, 
832.00000,0.102692
832.50000, 
833.00000,0.102524
833.50000, 
834.00000,0.102509
834.50000, 
835.00000,0.102448
835.50000, 
836.00000,0.102417
836.50000, 
837.00000,0.102325
837.50000, 
838.00000,0.102158
838.50000, 
839.00000,0.102066
839.50000, 
840.00000,0.101929
840.50000, 
841.00000,0.101852
841.50000, 
842.00000,0.101807
842.50000, 
843.00000,0.101730
843.50000, 
844.00000,0.101700
844.50000, 
845.00000,0.101654
845.50000, 
846.00000,0.101639
846.50000, 
847.00000,0.101547
847.50000, 
848.00000,0.101456
848.50000, 
849.00000,0.101425
849.50000, 
850.00000,0.101318
850.50000, 
851.00000,0.101242
851.50000, 
852.00000,0.101196
852.50000, 
853.00000,0.101196
853.50000, 
854.00000,0.101089
854.50000, 
855.00000,0.100983
855.50000, 
856.00000,0.100922
856.50000, 
857.00000,0.100800
857.50000, 
858.00000,0.100677
858.50000, 
859.00000,0.100708
859.50000, 
860.00000,0.100662
860.50000, 
861.00000,0.100540
861.50000, 
862.00000,0.100433
862.50000, 
863.00000,0.100388
863.50000, 
864.00000,0.100327
864.50000, 
865.00000,0.100327
865.50000, 
866.00000,0.100266
866.50000, 
867.00000,0.100143
867.50000, 
868.00000,0.100098
868.50000, 
869.00000,0.100021
869.50000, 
870.00000,0.100021
870.50000, 
871.00000,0.100006
871.50000, 
872.00000,0.099945
872.50000, 
873.00000,0.099976
873.50000, 
874.00000,0.099899
874.50000, 
875.00000,0.099899
875.50000, 
876.00000,0.099915
876.50000, 
877.00000,0.099991
877.50000, 
878.00000,0.099945
878.50000, 
879.00000,0.099899
879.50000, 
880.00000,0.099854
880.50000, 
881.00000,0.099747
881.50000, 
882.00000,0.099655
882.50000, 
883.00000,0.099518
883.50000, 
884.00000,0.099503
884.50000, 
885.00000,0.099411
885.50000, 
886.00000,0.099380
886.50000, 
887.00000,0.099365
887.50000, 
888.00000,0.099365
888.50000, 
889.00000,0.099380
889.50000, 
890.00000,0.099380
890.50000, 
891.00000,0.099411
891.50000, 
892.00000,0.099548
892.50000, 
893.00000,0.099594
893.50000, 
894.00000,0.099640
894.50000, 
895.00000,0.099716
895.50000, 
896.00000,0.099838
896.50000, 
897.00000,0.099960
897.50000, 
898.00000,0.100128
898.50000, 
899.00000,0.100204
899.50000, 
900.00000,0.100327
900.50000, 
901.00000, 
901.50000, 
902.00000, 
902.50000, 
903.00000, 
903.50000, 
904.00000, 
904.50000, 
905.00000, 
905.50000, 
906.00000, 
906.50000, 
907.00000, 
907.50000, 
908.00000, 
908.50000, 
909.00000, 
909.50000, 
910.00000, 
910.50000, 
911.00000, 
911.50000, 
912.00000, 
912.50000, 
913.00000, 
913.50000, 
914.00000, 
914.50000, 
915.00000, 
915.50000, 
916.00000, 
916.50000, 
917.00000, 
917.50000, 
918.00000, 
918.50000, 
919.00000, 
919.50000, 
920.00000, 
920.50000, 
921.00000, 
921.50000, 
922.00000, 
922.50000, 
923.00000, 
923.50000, 
924.00000, 
924.50000, 
925.00000, 
925.50000, 
926.00000, 
926.50000, 
927.00000, 
927.50000, 
928.00000, 
928.50000, 
929.00000, 
929.50000, 
930.00000, 
930.50000, 
931.00000, 
931.50000, 
932.00000, 
932.50000, 
933.00000, 
933.50000, 
934.00000, 
934.50000, 
935.00000, 
935.50000, 
936.00000, 
936.50000, 
937.00000, 
937.50000, 
938.00000, 
938.50000, 
939.00000, 
939.50000, 
940.00000, 
940.50000, 
941.00000, 
941.50000, 
942.00000, 
942.50000, 
943.00000, 
943.50000, 
944.00000, 
944.50000, 
945.00000, 
945.50000, 
946.00000, 
946.50000, 
947.00000, 
947.50000, 
948.00000, 
948.50000, 
949.00000, 
949.50000, 
950.00000, 
950.50000, 
951.00000, 
951.50000, 
952.00000, 
952.50000, 
953.00000, 
953.50000, 
954.00000, 
954.50000, 
955.00000, 
955.50000, 
956.00000, 
956.50000, 
957.00000, 
957.50000, 
958.00000, 
958.50000, 
959.00000, 
959.50000, 
960.00000, 
960.50000, 
961.00000, 
961.50000, 
962.00000, 
962.50000, 
963.00000, 
963.50000, 
964.00000, 
964.50000, 
965.00000, 
965.50000, 
966.00000, 
966.50000, 
967.00000, 
967.50000, 
968.00000, 
968.50000, 
969.00000, 
969.50000, 
970.00000, 
970.50000, 
971.00000, 
971.50000, 
972.00000, 
972.50000, 
973.00000, 
973.50000, 
974.00000, 
974.50000, 
975.00000, 
975.50000, 
976.00000, 
976.50000, 
977.00000, 
977.50000, 
978.00000, 
978.50000, 
979.00000, 
979.50000, 
980.00000, 
980.50000, 
981.00000, 
981.50000, 
982.00000, 
982.50000, 
983.00000, 
983.50000, 
984.00000, 
984.50000, 
985.00000, 
985.50000, 
986.00000, 
986.50000, 
987.00000, 
987.50000, 
988.00000, 
988.50000, 
989.00000, 
989.50000, 
990.00000, 
990.50000, 
991.00000, 
991.50000, 
992.00000, 
992.50000, 
993.00000, 
993.50000, 
994.00000, 
994.50000, 
995.00000, 
995.50000, 
996.00000, 
996.50000, 
997.00000, 
997.50000, 
998.00000, 
998.50000, 
999.00000, 
999.50000, 
1000.00000, 
1000.50000, 
1001.00000, 
1001.50000, 
1002.00000, 
1002.50000, 
1003.00000, 
1003.50000, 
1004.00000, 
1004.50000, 
1005.00000, 
1005.50000, 
1006.00000, 
1006.50000, 
1007.00000, 
1007.50000, 
1008.00000, 
1008.50000, 
1009.00000, 
1009.50000, 
1010.00000, 
1010.50000, 
1011.00000, 
1011.50000, 
1012.00000, 
1012.50000, 
1013.00000, 
1013.50000, 
1014.00000, 
1014.50000, 
1015.00000, 
1015.50000, 
1016.00000, 
1016.50000, 
1017.00000, 
1017.50000, 
1018.00000, 
1018.50000, 
1019.00000, 
1019.50000, 
1020.00000, 
1020.50000, 
1021.00000, 
1021.50000, 
1022.00000, 
1022.50000, 
1023.00000, 
1023.50000, 
1024.00000, 
1024.50000, 
1025.00000, 
1025.50000, 
1026.00000, 
1026.50000, 
1027.00000, 
1027.50000, 
1028.00000, 
1028.50000, 
1029.00000, 
1029.50000, 
1030.00000, 
1030.50000, 
1031.00000, 
1031.50000, 
1032.00000, 
1032.50000, 
1033.00000, 
1033.50000, 
1034.00000, 
1034.50000, 
1035.00000, 
1035.50000, 
1036.00000, 
1036.50000, 
1037.00000, 
1037.50000, 
1038.00000, 
1038.50000, 
1039.00000, 
1039.50000, 
1040.00000, 
1040.50000, 
1041.00000, 
1041.50000, 
1042.00000, 
1042.50000, 
1043.00000, 
1043.50000, 
1044.00000, 
1044.50000, 
1045.00000, 
1045.50000, 
1046.00000, 
1046.50000, 
1047.00000, 
1047.50000, 
1048.00000, 
1048.50000, 
1049.00000, 
1049.50000, 
1050.00000, 
1050.50000, 
1051.00000, 
1051.50000, 
1052.00000, 
1052.50000, 
1053.00000, 
1053.50000, 
1054.00000, 
1054.50000, 
1055.00000, 
1055.50000, 
1056.00000, 
1056.50000, 
1057.00000, 
1057.50000, 
1058.00000, 
1058.50000, 
1059.00000, 
1059.50000, 
1060.00000, 
1060.50000, 
1061.00000, 
1061.50000, 
1062.00000, 
1062.50000, 
1063.00000, 
1063.50000, 
1064.00000, 
1064.50000, 
1065.00000, 
1065.50000, 
1066.00000, 
1066.50000, 
1067.00000, 
1067.50000, 
1068.00000, 
1068.50000, 
1069.00000, 
1069.50000, 
1070.00000, 
1070.50000, 
1071.00000, 
1071.50000, 
1072.00000, 
1072.50000, 
1073.00000, 
1073.50000, 
1074.00000, 
1074.50000, 
1075.00000, 
1075.50000, 
1076.00000, 
1076.50000, 
1077.00000, 
1077.50000, 
1078.00000, 
1078.50000, 
1079.00000, 
1079.50000, 
1080.00000, 
1080.50000, 
1081.00000, 
1081.50000, 
1082.00000, 
1082.50000, 
1083.00000, 
1083.50000, 
1084.00000, 
1084.50000, 
1085.00000, 
1085.50000, 
1086.00000, 
1086.50000, 
1087.00000, 
1087.50000, 
1088.00000, 
1088.50000, 
1089.00000, 
1089.50000, 
1090.00000, 
1090.50000, 
1091.00000, 
1091.50000, 
1092.00000, 
1092.50000, 
1093.00000, 
1093.50000, 
1094.00000, 
1094.50000, 
1095.00000, 
1095.50000, 
1096.00000, 
1096.50000, 
1097.00000, 
1097.50000, 
1098.00000, 
1098.50000, 
1099.00000, 
1099.50000, 
1100.00000, 
