"0% V - RawData"
"Wavelength nm.","Abs."
300.00000,3.988174
300.50000, 
301.00000,3.857056
301.50000, 
302.00000,3.972549
302.50000, 
303.00000,3.883087
303.50000, 
304.00000,3.837204
304.50000, 
305.00000,3.950058
305.50000, 
306.00000,3.843384
306.50000, 
307.00000,3.857697
307.50000, 
308.00000,3.754639
308.50000, 
309.00000,3.763199
309.50000, 
310.00000,3.795181
310.50000, 
311.00000,3.821075
311.50000, 
312.00000,3.861710
312.50000, 
313.00000,3.806091
313.50000, 
314.00000,3.816025
314.50000, 
315.00000,3.854019
315.50000, 
316.00000,3.902756
316.50000, 
317.00000,3.850662
317.50000, 
318.00000,3.762894
318.50000, 
319.00000,3.768127
319.50000, 
320.00000,3.896957
320.50000, 
321.00000,3.814682
321.50000, 
322.00000,3.691910
322.50000, 
323.00000,3.926651
323.50000, 
324.00000,3.913284
324.50000, 
325.00000,3.946701
325.50000, 
326.00000,3.986176
326.50000, 
327.00000,3.762390
327.50000, 
328.00000,3.918167
328.50000, 
329.00000,3.908646
329.50000, 
330.00000,3.886536
330.50000, 
331.00000,3.914185
331.50000, 
332.00000,3.747833
332.50000, 
333.00000,3.924072
333.50000, 
334.00000,3.786011
334.50000, 
335.00000,3.801987
335.50000, 
336.00000,3.740265
336.50000, 
337.00000,3.951492
337.50000, 
338.00000,3.809601
338.50000, 
339.00000,3.972000
339.50000, 
340.00000,3.877380
340.50000, 
341.00000,3.851883
341.50000, 
342.00000,3.668549
342.50000, 
343.00000,3.696777
343.50000, 
344.00000,3.804001
344.50000, 
345.00000,3.771957
345.50000, 
346.00000,3.927353
346.50000, 
347.00000,3.781815
347.50000, 
348.00000,3.916840
348.50000, 
349.00000,3.694839
349.50000, 
350.00000,3.630630
350.50000, 
351.00000,3.836288
351.50000, 
352.00000,3.646576
352.50000, 
353.00000,3.761230
353.50000, 
354.00000,3.576172
354.50000, 
355.00000,3.799591
355.50000, 
356.00000,3.787750
356.50000, 
357.00000,3.842957
357.50000, 
358.00000,3.877487
358.50000, 
359.00000,3.944672
359.50000, 
360.00000,3.822556
360.50000, 
361.00000,3.708862
361.50000, 
362.00000,3.873459
362.50000, 
363.00000,3.898773
363.50000, 
364.00000,3.968246
364.50000, 
365.00000,3.896011
365.50000, 
366.00000,3.611893
366.50000, 
367.00000,3.876419
367.50000, 
368.00000,3.855865
368.50000, 
369.00000,3.791550
369.50000, 
370.00000,3.872620
370.50000, 
371.00000,3.805649
371.50000, 
372.00000,3.830185
372.50000, 
373.00000,3.815735
373.50000, 
374.00000,3.667175
374.50000, 
375.00000,3.715607
375.50000, 
376.00000,3.944427
376.50000, 
377.00000,3.945953
377.50000, 
378.00000,3.799500
378.50000, 
379.00000,3.924957
379.50000, 
380.00000,3.974274
380.50000, 
381.00000,3.711380
381.50000, 
382.00000,3.612488
382.50000, 
383.00000,3.330887
383.50000, 
384.00000,3.026016
384.50000, 
385.00000,2.851486
385.50000, 
386.00000,2.658554
386.50000, 
387.00000,2.468475
387.50000, 
388.00000,2.299362
388.50000, 
389.00000,2.151917
389.50000, 
390.00000,2.020691
390.50000, 
391.00000,1.895462
391.50000, 
392.00000,1.796127
392.50000, 
393.00000,1.707001
393.50000, 
394.00000,1.624237
394.50000, 
395.00000,1.556915
395.50000, 
396.00000,1.498672
396.50000, 
397.00000,1.450562
397.50000, 
398.00000,1.411713
398.50000, 
399.00000,1.377625
399.50000, 
400.00000,1.348114
400.50000, 
401.00000,1.320404
401.50000, 
402.00000,1.295395
402.50000, 
403.00000,1.273087
403.50000, 
404.00000,1.251251
404.50000, 
405.00000,1.232086
405.50000, 
406.00000,1.213898
406.50000, 
407.00000,1.197845
407.50000, 
408.00000,1.182999
408.50000, 
409.00000,1.170090
409.50000, 
410.00000,1.158127
410.50000, 
411.00000,1.147903
411.50000, 
412.00000,1.139023
412.50000, 
413.00000,1.131165
413.50000, 
414.00000,1.123688
414.50000, 
415.00000,1.117188
415.50000, 
416.00000,1.111771
416.50000, 
417.00000,1.106018
417.50000, 
418.00000,1.101318
418.50000, 
419.00000,1.097076
419.50000, 
420.00000,1.092712
420.50000, 
421.00000,1.088867
421.50000, 
422.00000,1.085068
422.50000, 
423.00000,1.082291
423.50000, 
424.00000,1.078949
424.50000, 
425.00000,1.076233
425.50000, 
426.00000,1.073792
426.50000, 
427.00000,1.071518
427.50000, 
428.00000,1.069427
428.50000, 
429.00000,1.067459
429.50000, 
430.00000,1.065643
430.50000, 
431.00000,1.064407
431.50000, 
432.00000,1.062988
432.50000, 
433.00000,1.061646
433.50000, 
434.00000,1.060638
434.50000, 
435.00000,1.059402
435.50000, 
436.00000,1.058228
436.50000, 
437.00000,1.056870
437.50000, 
438.00000,1.055664
438.50000, 
439.00000,1.054550
439.50000, 
440.00000,1.053162
440.50000, 
441.00000,1.052155
441.50000, 
442.00000,1.051071
442.50000, 
443.00000,1.050232
443.50000, 
444.00000,1.049149
444.50000, 
445.00000,1.047943
445.50000, 
446.00000,1.047195
446.50000, 
447.00000,1.046371
447.50000, 
448.00000,1.045563
448.50000, 
449.00000,1.044815
449.50000, 
450.00000,1.043961
450.50000, 
451.00000,1.043350
451.50000, 
452.00000,1.042847
452.50000, 
453.00000,1.042160
453.50000, 
454.00000,1.041473
454.50000, 
455.00000,1.040894
455.50000, 
456.00000,1.040237
456.50000, 
457.00000,1.039551
457.50000, 
458.00000,1.038986
458.50000, 
459.00000,1.038345
459.50000, 
460.00000,1.037750
460.50000, 
461.00000,1.037109
461.50000, 
462.00000,1.036530
462.50000, 
463.00000,1.035858
463.50000, 
464.00000,1.035233
464.50000, 
465.00000,1.034195
465.50000, 
466.00000,1.033463
466.50000, 
467.00000,1.032364
467.50000, 
468.00000,1.031265
468.50000, 
469.00000,1.029770
469.50000, 
470.00000,1.027893
470.50000, 
471.00000,1.025558
471.50000, 
472.00000,1.021759
472.50000, 
473.00000,1.016281
473.50000, 
474.00000,1.013672
474.50000, 
475.00000,1.015045
475.50000, 
476.00000,1.017273
476.50000, 
477.00000,1.020462
477.50000, 
478.00000,1.024521
478.50000, 
479.00000,1.029648
479.50000, 
480.00000,1.035889
480.50000, 
481.00000,1.043655
481.50000, 
482.00000,1.052460
482.50000, 
483.00000,1.063187
483.50000, 
484.00000,1.076126
484.50000, 
485.00000,1.089996
485.50000, 
486.00000,1.105545
486.50000, 
487.00000,1.122574
487.50000, 
488.00000,1.139114
488.50000, 
489.00000,1.154694
489.50000, 
490.00000,1.168808
490.50000, 
491.00000,1.180313
491.50000, 
492.00000,1.189331
492.50000, 
493.00000,1.195328
493.50000, 
494.00000,1.198410
494.50000, 
495.00000,1.198822
495.50000, 
496.00000,1.196686
496.50000, 
497.00000,1.192810
497.50000, 
498.00000,1.187546
498.50000, 
499.00000,1.181778
499.50000, 
500.00000,1.175507
500.50000, 
501.00000,1.168488
501.50000, 
502.00000,1.161484
502.50000, 
503.00000,1.154541
503.50000, 
504.00000,1.147949
504.50000, 
505.00000,1.141571
505.50000, 
506.00000,1.135162
506.50000, 
507.00000,1.129364
507.50000, 
508.00000,1.123840
508.50000, 
509.00000,1.118652
509.50000, 
510.00000,1.113800
510.50000, 
511.00000,1.109467
511.50000, 
512.00000,1.104919
512.50000, 
513.00000,1.100815
513.50000, 
514.00000,1.097198
514.50000, 
515.00000,1.093384
515.50000, 
516.00000,1.089844
516.50000, 
517.00000,1.086639
517.50000, 
518.00000,1.083496
518.50000, 
519.00000,1.080551
519.50000, 
520.00000,1.077530
520.50000, 
521.00000,1.074615
521.50000, 
522.00000,1.072098
522.50000, 
523.00000,1.069565
523.50000, 
524.00000,1.067047
524.50000, 
525.00000,1.064621
525.50000, 
526.00000,1.062180
526.50000, 
527.00000,1.059875
527.50000, 
528.00000,1.057663
528.50000, 
529.00000,1.055374
529.50000, 
530.00000,1.053391
530.50000, 
531.00000,1.051529
531.50000, 
532.00000,1.049530
532.50000, 
533.00000,1.047775
533.50000, 
534.00000,1.046021
534.50000, 
535.00000,1.044357
535.50000, 
536.00000,1.042145
536.50000, 
537.00000,1.039520
537.50000, 
538.00000,1.038162
538.50000, 
539.00000,1.036926
539.50000, 
540.00000,1.035599
540.50000, 
541.00000,1.034286
541.50000, 
542.00000,1.033005
542.50000, 
543.00000,1.031754
543.50000, 
544.00000,1.030457
544.50000, 
545.00000,1.029297
545.50000, 
546.00000,1.028015
546.50000, 
547.00000,1.026779
547.50000, 
548.00000,1.025574
548.50000, 
549.00000,1.024307
549.50000, 
550.00000,1.022888
550.50000, 
551.00000,1.021515
551.50000, 
552.00000,1.020035
552.50000, 
553.00000,1.018616
553.50000, 
554.00000,1.017090
554.50000, 
555.00000,1.015579
555.50000, 
556.00000,1.013916
556.50000, 
557.00000,1.012115
557.50000, 
558.00000,1.010330
558.50000, 
559.00000,1.008499
559.50000, 
560.00000,1.006760
560.50000, 
561.00000,1.004776
561.50000, 
562.00000,1.002853
562.50000, 
563.00000,1.000900
563.50000, 
564.00000,0.998871
564.50000, 
565.00000,0.996704
565.50000, 
566.00000,0.994614
566.50000, 
567.00000,0.992554
567.50000, 
568.00000,0.990448
568.50000, 
569.00000,0.988327
569.50000, 
570.00000,0.986145
570.50000, 
571.00000,0.984070
571.50000, 
572.00000,0.982101
572.50000, 
573.00000,0.980057
573.50000, 
574.00000,0.977997
574.50000, 
575.00000,0.975937
575.50000, 
576.00000,0.973907
576.50000, 
577.00000,0.971939
577.50000, 
578.00000,0.970062
578.50000, 
579.00000,0.968353
579.50000, 
580.00000,0.966583
580.50000, 
581.00000,0.964874
581.50000, 
582.00000,0.963455
582.50000, 
583.00000,0.962021
583.50000, 
584.00000,0.960602
584.50000, 
585.00000,0.959351
585.50000, 
586.00000,0.958221
586.50000, 
587.00000,0.957123
587.50000, 
588.00000,0.956100
588.50000, 
589.00000,0.955185
589.50000, 
590.00000,0.954346
590.50000, 
591.00000,0.953400
591.50000, 
592.00000,0.952652
592.50000, 
593.00000,0.951920
593.50000, 
594.00000,0.950989
594.50000, 
595.00000,0.950073
595.50000, 
596.00000,0.949234
596.50000, 
597.00000,0.948425
597.50000, 
598.00000,0.947571
598.50000, 
599.00000,0.946487
599.50000, 
600.00000,0.945389
600.50000, 
601.00000,0.944229
601.50000, 
602.00000,0.942871
602.50000, 
603.00000,0.941345
603.50000, 
604.00000,0.939819
604.50000, 
605.00000,0.938141
605.50000, 
606.00000,0.936264
606.50000, 
607.00000,0.934341
607.50000, 
608.00000,0.932343
608.50000, 
609.00000,0.930161
609.50000, 
610.00000,0.927811
610.50000, 
611.00000,0.925446
611.50000, 
612.00000,0.922974
612.50000, 
613.00000,0.920349
613.50000, 
614.00000,0.917587
614.50000, 
615.00000,0.914902
615.50000, 
616.00000,0.912033
616.50000, 
617.00000,0.909134
617.50000, 
618.00000,0.905899
618.50000, 
619.00000,0.902786
619.50000, 
620.00000,0.899750
620.50000, 
621.00000,0.896423
621.50000, 
622.00000,0.893158
622.50000, 
623.00000,0.889725
623.50000, 
624.00000,0.886261
624.50000, 
625.00000,0.882645
625.50000, 
626.00000,0.878906
626.50000, 
627.00000,0.875168
627.50000, 
628.00000,0.871277
628.50000, 
629.00000,0.867188
629.50000, 
630.00000,0.862823
630.50000, 
631.00000,0.857788
631.50000, 
632.00000,0.852081
632.50000, 
633.00000,0.844101
633.50000, 
634.00000,0.832397
634.50000, 
635.00000,0.829498
635.50000, 
636.00000,0.840790
636.50000, 
637.00000,0.856812
637.50000, 
638.00000,0.876190
638.50000, 
639.00000,0.900986
639.50000, 
640.00000,0.929489
640.50000, 
641.00000,0.960693
641.50000, 
642.00000,0.993195
642.50000, 
643.00000,1.024307
643.50000, 
644.00000,1.051605
644.50000, 
645.00000,1.072052
645.50000, 
646.00000,1.084473
646.50000, 
647.00000,1.088165
647.50000, 
648.00000,1.084518
648.50000, 
649.00000,1.074814
649.50000, 
650.00000,1.061829
650.50000, 
651.00000,1.047043
651.50000, 
652.00000,1.031281
652.50000, 
653.00000,1.015717
653.50000, 
654.00000,1.000702
654.50000, 
655.00000,0.986832
655.50000, 
656.00000,0.973770
656.50000, 
657.00000,0.961960
657.50000, 
658.00000,0.951035
658.50000, 
659.00000,0.941360
659.50000, 
660.00000,0.931976
660.50000, 
661.00000,0.923584
661.50000, 
662.00000,0.915787
662.50000, 
663.00000,0.908798
663.50000, 
664.00000,0.902130
664.50000, 
665.00000,0.896225
665.50000, 
666.00000,0.890579
666.50000, 
667.00000,0.885651
667.50000, 
668.00000,0.880600
668.50000, 
669.00000,0.876114
669.50000, 
670.00000,0.871643
670.50000, 
671.00000,0.867615
671.50000, 
672.00000,0.863510
672.50000, 
673.00000,0.860107
673.50000, 
674.00000,0.856644
674.50000, 
675.00000,0.853378
675.50000, 
676.00000,0.850174
676.50000, 
677.00000,0.847336
677.50000, 
678.00000,0.844528
678.50000, 
679.00000,0.841888
679.50000, 
680.00000,0.839355
680.50000, 
681.00000,0.836960
681.50000, 
682.00000,0.834702
682.50000, 
683.00000,0.832596
683.50000, 
684.00000,0.830521
684.50000, 
685.00000,0.828506
685.50000, 
686.00000,0.826599
686.50000, 
687.00000,0.824890
687.50000, 
688.00000,0.823029
688.50000, 
689.00000,0.821594
689.50000, 
690.00000,0.819733
690.50000, 
691.00000,0.818329
691.50000, 
692.00000,0.816635
692.50000, 
693.00000,0.815521
693.50000, 
694.00000,0.813858
694.50000, 
695.00000,0.812759
695.50000, 
696.00000,0.811096
696.50000, 
697.00000,0.810043
697.50000, 
698.00000,0.808563
698.50000, 
699.00000,0.807556
699.50000, 
700.00000,0.806000
700.50000, 
701.00000,0.804993
701.50000, 
702.00000,0.803680
702.50000, 
703.00000,0.802887
703.50000, 
704.00000,0.801682
704.50000, 
705.00000,0.800659
705.50000, 
706.00000,0.799545
706.50000, 
707.00000,0.798294
707.50000, 
708.00000,0.797470
708.50000, 
709.00000,0.796173
709.50000, 
710.00000,0.795441
710.50000, 
711.00000,0.794022
711.50000, 
712.00000,0.793167
712.50000, 
713.00000,0.791931
713.50000, 
714.00000,0.790894
714.50000, 
715.00000,0.789688
715.50000, 
716.00000,0.788467
716.50000, 
717.00000,0.787460
717.50000, 
718.00000,0.786194
718.50000, 
719.00000,0.785385
719.50000, 
720.00000,0.783920
720.50000, 
721.00000,0.783142
721.50000, 
722.00000,0.781723
722.50000, 
723.00000,0.780975
723.50000, 
724.00000,0.779770
724.50000, 
725.00000,0.778778
725.50000, 
726.00000,0.778046
726.50000, 
727.00000,0.776794
727.50000, 
728.00000,0.776184
728.50000, 
729.00000,0.774933
729.50000, 
730.00000,0.774414
730.50000, 
731.00000,0.773376
731.50000, 
732.00000,0.772659
732.50000, 
733.00000,0.771942
733.50000, 
734.00000,0.770920
734.50000, 
735.00000,0.770584
735.50000, 
736.00000,0.769531
736.50000, 
737.00000,0.769135
737.50000, 
738.00000,0.768234
738.50000, 
739.00000,0.767410
739.50000, 
740.00000,0.766953
740.50000, 
741.00000,0.766083
741.50000, 
742.00000,0.765747
742.50000, 
743.00000,0.764832
743.50000, 
744.00000,0.764252
744.50000, 
745.00000,0.763641
745.50000, 
746.00000,0.762680
746.50000, 
747.00000,0.762405
747.50000, 
748.00000,0.761261
748.50000, 
749.00000,0.761078
749.50000, 
750.00000,0.760330
750.50000, 
751.00000,0.759567
751.50000, 
752.00000,0.759338
752.50000, 
753.00000,0.758499
753.50000, 
754.00000,0.758331
754.50000, 
755.00000,0.757645
755.50000, 
756.00000,0.757034
756.50000, 
757.00000,0.756836
757.50000, 
758.00000,0.755951
758.50000, 
759.00000,0.755875
759.50000, 
760.00000,0.755569
760.50000, 
761.00000,0.754807
761.50000, 
762.00000,0.754791
762.50000, 
763.00000,0.753937
763.50000, 
764.00000,0.753677
764.50000, 
765.00000,0.753403
765.50000, 
766.00000,0.752609
766.50000, 
767.00000,0.752731
767.50000, 
768.00000,0.751846
768.50000, 
769.00000,0.751678
769.50000, 
770.00000,0.751343
770.50000, 
771.00000,0.750610
771.50000, 
772.00000,0.750778
772.50000, 
773.00000,0.749954
773.50000, 
774.00000,0.749664
774.50000, 
775.00000,0.749466
775.50000, 
776.00000,0.748596
776.50000, 
777.00000,0.748627
777.50000, 
778.00000,0.748245
778.50000, 
779.00000,0.747482
779.50000, 
780.00000,0.747696
780.50000, 
781.00000,0.746796
781.50000, 
782.00000,0.746521
782.50000, 
783.00000,0.746292
783.50000, 
784.00000,0.745468
784.50000, 
785.00000,0.745331
785.50000, 
786.00000,0.744904
786.50000, 
787.00000,0.743942
787.50000, 
788.00000,0.743851
788.50000, 
789.00000,0.742859
789.50000, 
790.00000,0.742355
790.50000, 
791.00000,0.742020
791.50000, 
792.00000,0.740768
792.50000, 
793.00000,0.740463
793.50000, 
794.00000,0.739471
794.50000, 
795.00000,0.738281
795.50000, 
796.00000,0.737885
796.50000, 
797.00000,0.736816
797.50000, 
798.00000,0.735641
798.50000, 
799.00000,0.735138
799.50000, 
800.00000,0.733261
800.50000, 
801.00000,0.732132
801.50000, 
802.00000,0.731125
802.50000, 
803.00000,0.729248
803.50000, 
804.00000,0.727997
804.50000, 
805.00000,0.726822
805.50000, 
806.00000,0.724625
806.50000, 
807.00000,0.723190
807.50000, 
808.00000,0.721375
808.50000, 
809.00000,0.718750
809.50000, 
810.00000,0.716812
810.50000, 
811.00000,0.714630
811.50000, 
812.00000,0.711777
812.50000, 
813.00000,0.709778
813.50000, 
814.00000,0.706802
814.50000, 
815.00000,0.703751
815.50000, 
816.00000,0.701233
816.50000, 
817.00000,0.697754
817.50000, 
818.00000,0.694199
818.50000, 
819.00000,0.691559
819.50000, 
820.00000,0.687637
820.50000, 
821.00000,0.683746
821.50000, 
822.00000,0.680634
822.50000, 
823.00000,0.676315
823.50000, 
824.00000,0.672287
824.50000, 
825.00000,0.668808
825.50000, 
826.00000,0.664413
826.50000, 
827.00000,0.659866
827.50000, 
828.00000,0.655975
828.50000, 
829.00000,0.650970
829.50000, 
830.00000,0.646088
830.50000, 
831.00000,0.641830
831.50000, 
832.00000,0.636597
832.50000, 
833.00000,0.631363
833.50000, 
834.00000,0.626862
834.50000, 
835.00000,0.621292
835.50000, 
836.00000,0.615463
836.50000, 
837.00000,0.610550
837.50000, 
838.00000,0.604538
838.50000, 
839.00000,0.598480
839.50000, 
840.00000,0.593735
840.50000, 
841.00000,0.588120
841.50000, 
842.00000,0.581985
842.50000, 
843.00000,0.576920
843.50000, 
844.00000,0.570938
844.50000, 
845.00000,0.564484
845.50000, 
846.00000,0.559464
846.50000, 
847.00000,0.554108
847.50000, 
848.00000,0.547745
848.50000, 
849.00000,0.542267
849.50000, 
850.00000,0.537231
850.50000, 
851.00000,0.530807
851.50000, 
852.00000,0.525055
852.50000, 
853.00000,0.519943
853.50000, 
854.00000,0.513504
854.50000, 
855.00000,0.507477
855.50000, 
856.00000,0.502441
856.50000, 
857.00000,0.496307
857.50000, 
858.00000,0.489838
858.50000, 
859.00000,0.484970
859.50000, 
860.00000,0.478958
860.50000, 
861.00000,0.472763
861.50000, 
862.00000,0.467712
862.50000, 
863.00000,0.462189
863.50000, 
864.00000,0.455994
864.50000, 
865.00000,0.450958
865.50000, 
866.00000,0.446228
866.50000, 
867.00000,0.440369
867.50000, 
868.00000,0.435425
868.50000, 
869.00000,0.431137
869.50000, 
870.00000,0.425751
870.50000, 
871.00000,0.420410
871.50000, 
872.00000,0.416214
872.50000, 
873.00000,0.411621
873.50000, 
874.00000,0.406158
874.50000, 
875.00000,0.401947
875.50000, 
876.00000,0.397873
876.50000, 
877.00000,0.392563
877.50000, 
878.00000,0.387970
878.50000, 
879.00000,0.384186
879.50000, 
880.00000,0.379395
880.50000, 
881.00000,0.374390
881.50000, 
882.00000,0.370926
882.50000, 
883.00000,0.366776
883.50000, 
884.00000,0.361954
884.50000, 
885.00000,0.358322
885.50000, 
886.00000,0.355087
886.50000, 
887.00000,0.350693
887.50000, 
888.00000,0.346405
888.50000, 
889.00000,0.343765
889.50000, 
890.00000,0.340225
890.50000, 
891.00000,0.335983
891.50000, 
892.00000,0.333099
892.50000, 
893.00000,0.330399
893.50000, 
894.00000,0.326599
894.50000, 
895.00000,0.323120
895.50000, 
896.00000,0.320877
896.50000, 
897.00000,0.318024
897.50000, 
898.00000,0.314178
898.50000, 
899.00000,0.311584
899.50000, 
900.00000,0.310181
900.50000, 
901.00000, 
901.50000, 
902.00000, 
902.50000, 
903.00000, 
903.50000, 
904.00000, 
904.50000, 
905.00000, 
905.50000, 
906.00000, 
906.50000, 
907.00000, 
907.50000, 
908.00000, 
908.50000, 
909.00000, 
909.50000, 
910.00000, 
910.50000, 
911.00000, 
911.50000, 
912.00000, 
912.50000, 
913.00000, 
913.50000, 
914.00000, 
914.50000, 
915.00000, 
915.50000, 
916.00000, 
916.50000, 
917.00000, 
917.50000, 
918.00000, 
918.50000, 
919.00000, 
919.50000, 
920.00000, 
920.50000, 
921.00000, 
921.50000, 
922.00000, 
922.50000, 
923.00000, 
923.50000, 
924.00000, 
924.50000, 
925.00000, 
925.50000, 
926.00000, 
926.50000, 
927.00000, 
927.50000, 
928.00000, 
928.50000, 
929.00000, 
929.50000, 
930.00000, 
930.50000, 
931.00000, 
931.50000, 
932.00000, 
932.50000, 
933.00000, 
933.50000, 
934.00000, 
934.50000, 
935.00000, 
935.50000, 
936.00000, 
936.50000, 
937.00000, 
937.50000, 
938.00000, 
938.50000, 
939.00000, 
939.50000, 
940.00000, 
940.50000, 
941.00000, 
941.50000, 
942.00000, 
942.50000, 
943.00000, 
943.50000, 
944.00000, 
944.50000, 
945.00000, 
945.50000, 
946.00000, 
946.50000, 
947.00000, 
947.50000, 
948.00000, 
948.50000, 
949.00000, 
949.50000, 
950.00000, 
950.50000, 
951.00000, 
951.50000, 
952.00000, 
952.50000, 
953.00000, 
953.50000, 
954.00000, 
954.50000, 
955.00000, 
955.50000, 
956.00000, 
956.50000, 
957.00000, 
957.50000, 
958.00000, 
958.50000, 
959.00000, 
959.50000, 
960.00000, 
960.50000, 
961.00000, 
961.50000, 
962.00000, 
962.50000, 
963.00000, 
963.50000, 
964.00000, 
964.50000, 
965.00000, 
965.50000, 
966.00000, 
966.50000, 
967.00000, 
967.50000, 
968.00000, 
968.50000, 
969.00000, 
969.50000, 
970.00000, 
970.50000, 
971.00000, 
971.50000, 
972.00000, 
972.50000, 
973.00000, 
973.50000, 
974.00000, 
974.50000, 
975.00000, 
975.50000, 
976.00000, 
976.50000, 
977.00000, 
977.50000, 
978.00000, 
978.50000, 
979.00000, 
979.50000, 
980.00000, 
980.50000, 
981.00000, 
981.50000, 
982.00000, 
982.50000, 
983.00000, 
983.50000, 
984.00000, 
984.50000, 
985.00000, 
985.50000, 
986.00000, 
986.50000, 
987.00000, 
987.50000, 
988.00000, 
988.50000, 
989.00000, 
989.50000, 
990.00000, 
990.50000, 
991.00000, 
991.50000, 
992.00000, 
992.50000, 
993.00000, 
993.50000, 
994.00000, 
994.50000, 
995.00000, 
995.50000, 
996.00000, 
996.50000, 
997.00000, 
997.50000, 
998.00000, 
998.50000, 
999.00000, 
999.50000, 
1000.00000, 
1000.50000, 
1001.00000, 
1001.50000, 
1002.00000, 
1002.50000, 
1003.00000, 
1003.50000, 
1004.00000, 
1004.50000, 
1005.00000, 
1005.50000, 
1006.00000, 
1006.50000, 
1007.00000, 
1007.50000, 
1008.00000, 
1008.50000, 
1009.00000, 
1009.50000, 
1010.00000, 
1010.50000, 
1011.00000, 
1011.50000, 
1012.00000, 
1012.50000, 
1013.00000, 
1013.50000, 
1014.00000, 
1014.50000, 
1015.00000, 
1015.50000, 
1016.00000, 
1016.50000, 
1017.00000, 
1017.50000, 
1018.00000, 
1018.50000, 
1019.00000, 
1019.50000, 
1020.00000, 
1020.50000, 
1021.00000, 
1021.50000, 
1022.00000, 
1022.50000, 
1023.00000, 
1023.50000, 
1024.00000, 
1024.50000, 
1025.00000, 
1025.50000, 
1026.00000, 
1026.50000, 
1027.00000, 
1027.50000, 
1028.00000, 
1028.50000, 
1029.00000, 
1029.50000, 
1030.00000, 
1030.50000, 
1031.00000, 
1031.50000, 
1032.00000, 
1032.50000, 
1033.00000, 
1033.50000, 
1034.00000, 
1034.50000, 
1035.00000, 
1035.50000, 
1036.00000, 
1036.50000, 
1037.00000, 
1037.50000, 
1038.00000, 
1038.50000, 
1039.00000, 
1039.50000, 
1040.00000, 
1040.50000, 
1041.00000, 
1041.50000, 
1042.00000, 
1042.50000, 
1043.00000, 
1043.50000, 
1044.00000, 
1044.50000, 
1045.00000, 
1045.50000, 
1046.00000, 
1046.50000, 
1047.00000, 
1047.50000, 
1048.00000, 
1048.50000, 
1049.00000, 
1049.50000, 
1050.00000, 
1050.50000, 
1051.00000, 
1051.50000, 
1052.00000, 
1052.50000, 
1053.00000, 
1053.50000, 
1054.00000, 
1054.50000, 
1055.00000, 
1055.50000, 
1056.00000, 
1056.50000, 
1057.00000, 
1057.50000, 
1058.00000, 
1058.50000, 
1059.00000, 
1059.50000, 
1060.00000, 
1060.50000, 
1061.00000, 
1061.50000, 
1062.00000, 
1062.50000, 
1063.00000, 
1063.50000, 
1064.00000, 
1064.50000, 
1065.00000, 
1065.50000, 
1066.00000, 
1066.50000, 
1067.00000, 
1067.50000, 
1068.00000, 
1068.50000, 
1069.00000, 
1069.50000, 
1070.00000, 
1070.50000, 
1071.00000, 
1071.50000, 
1072.00000, 
1072.50000, 
1073.00000, 
1073.50000, 
1074.00000, 
1074.50000, 
1075.00000, 
1075.50000, 
1076.00000, 
1076.50000, 
1077.00000, 
1077.50000, 
1078.00000, 
1078.50000, 
1079.00000, 
1079.50000, 
1080.00000, 
1080.50000, 
1081.00000, 
1081.50000, 
1082.00000, 
1082.50000, 
1083.00000, 
1083.50000, 
1084.00000, 
1084.50000, 
1085.00000, 
1085.50000, 
1086.00000, 
1086.50000, 
1087.00000, 
1087.50000, 
1088.00000, 
1088.50000, 
1089.00000, 
1089.50000, 
1090.00000, 
1090.50000, 
1091.00000, 
1091.50000, 
1092.00000, 
1092.50000, 
1093.00000, 
1093.50000, 
1094.00000, 
1094.50000, 
1095.00000, 
1095.50000, 
1096.00000, 
1096.50000, 
1097.00000, 
1097.50000, 
1098.00000, 
1098.50000, 
1099.00000, 
1099.50000, 
1100.00000, 
