"20%V2 - RawData"
"Wavelength nm.","Abs."
300.00000,4.000000
300.50000, 
301.00000,3.976807
301.50000, 
302.00000,4.000000
302.50000, 
303.00000,3.925461
303.50000, 
304.00000,3.980621
304.50000, 
305.00000,3.978378
305.50000, 
306.00000,3.966339
306.50000, 
307.00000,3.979645
307.50000, 
308.00000,4.000000
308.50000, 
309.00000,4.000000
309.50000, 
310.00000,3.972687
310.50000, 
311.00000,4.000000
311.50000, 
312.00000,4.000000
312.50000, 
313.00000,3.944946
313.50000, 
314.00000,3.975189
314.50000, 
315.00000,3.996979
315.50000, 
316.00000,3.996948
316.50000, 
317.00000,4.000000
317.50000, 
318.00000,4.000000
318.50000, 
319.00000,3.956818
319.50000, 
320.00000,4.000000
320.50000, 
321.00000,3.938965
321.50000, 
322.00000,3.956070
322.50000, 
323.00000,4.000000
323.50000, 
324.00000,3.952606
324.50000, 
325.00000,4.000000
325.50000, 
326.00000,3.967834
326.50000, 
327.00000,4.000000
327.50000, 
328.00000,3.957016
328.50000, 
329.00000,3.943436
329.50000, 
330.00000,4.000000
330.50000, 
331.00000,4.000000
331.50000, 
332.00000,4.000000
332.50000, 
333.00000,4.000000
333.50000, 
334.00000,3.977219
334.50000, 
335.00000,3.964706
335.50000, 
336.00000,3.967911
336.50000, 
337.00000,4.000000
337.50000, 
338.00000,4.000000
338.50000, 
339.00000,3.970078
339.50000, 
340.00000,3.954208
340.50000, 
341.00000,3.968140
341.50000, 
342.00000,3.965332
342.50000, 
343.00000,3.964569
343.50000, 
344.00000,3.977814
344.50000, 
345.00000,3.974609
345.50000, 
346.00000,3.917160
346.50000, 
347.00000,3.993286
347.50000, 
348.00000,4.000000
348.50000, 
349.00000,4.000000
349.50000, 
350.00000,3.983749
350.50000, 
351.00000,3.962906
351.50000, 
352.00000,4.000000
352.50000, 
353.00000,3.924286
353.50000, 
354.00000,4.000000
354.50000, 
355.00000,3.955841
355.50000, 
356.00000,3.962860
356.50000, 
357.00000,4.000000
357.50000, 
358.00000,4.000000
358.50000, 
359.00000,3.975327
359.50000, 
360.00000,3.984985
360.50000, 
361.00000,3.932159
361.50000, 
362.00000,3.905457
362.50000, 
363.00000,3.995056
363.50000, 
364.00000,3.950317
364.50000, 
365.00000,3.997543
365.50000, 
366.00000,3.932297
366.50000, 
367.00000,3.890366
367.50000, 
368.00000,3.904266
368.50000, 
369.00000,3.999786
369.50000, 
370.00000,3.956635
370.50000, 
371.00000,3.933945
371.50000, 
372.00000,3.791901
372.50000, 
373.00000,3.958923
373.50000, 
374.00000,3.983093
374.50000, 
375.00000,3.936523
375.50000, 
376.00000,4.000000
376.50000, 
377.00000,3.924454
377.50000, 
378.00000,3.941757
378.50000, 
379.00000,4.000000
379.50000, 
380.00000,3.860748
380.50000, 
381.00000,3.794571
381.50000, 
382.00000,3.571350
382.50000, 
383.00000,3.386978
383.50000, 
384.00000,3.090408
384.50000, 
385.00000,2.902649
385.50000, 
386.00000,2.688492
386.50000, 
387.00000,2.503387
387.50000, 
388.00000,2.310562
388.50000, 
389.00000,2.148865
389.50000, 
390.00000,2.021332
390.50000, 
391.00000,1.903625
391.50000, 
392.00000,1.799850
392.50000, 
393.00000,1.710922
393.50000, 
394.00000,1.630142
394.50000, 
395.00000,1.562744
395.50000, 
396.00000,1.504059
396.50000, 
397.00000,1.457474
397.50000, 
398.00000,1.418335
398.50000, 
399.00000,1.383423
399.50000, 
400.00000,1.354248
400.50000, 
401.00000,1.327042
401.50000, 
402.00000,1.302109
402.50000, 
403.00000,1.279037
403.50000, 
404.00000,1.257690
404.50000, 
405.00000,1.238419
405.50000, 
406.00000,1.220856
406.50000, 
407.00000,1.203125
407.50000, 
408.00000,1.188721
408.50000, 
409.00000,1.175415
409.50000, 
410.00000,1.163177
410.50000, 
411.00000,1.153275
411.50000, 
412.00000,1.144501
412.50000, 
413.00000,1.135864
413.50000, 
414.00000,1.128174
414.50000, 
415.00000,1.121689
415.50000, 
416.00000,1.115967
416.50000, 
417.00000,1.110397
417.50000, 
418.00000,1.105118
418.50000, 
419.00000,1.100586
419.50000, 
420.00000,1.096710
420.50000, 
421.00000,1.092438
421.50000, 
422.00000,1.088745
422.50000, 
423.00000,1.085190
423.50000, 
424.00000,1.082260
424.50000, 
425.00000,1.079330
425.50000, 
426.00000,1.076736
426.50000, 
427.00000,1.074310
427.50000, 
428.00000,1.072266
428.50000, 
429.00000,1.070236
429.50000, 
430.00000,1.068588
430.50000, 
431.00000,1.066666
431.50000, 
432.00000,1.065186
432.50000, 
433.00000,1.063950
433.50000, 
434.00000,1.062576
434.50000, 
435.00000,1.061417
435.50000, 
436.00000,1.059967
436.50000, 
437.00000,1.058655
437.50000, 
438.00000,1.057175
438.50000, 
439.00000,1.055847
439.50000, 
440.00000,1.054565
440.50000, 
441.00000,1.053452
441.50000, 
442.00000,1.052322
442.50000, 
443.00000,1.051208
443.50000, 
444.00000,1.049789
444.50000, 
445.00000,1.049072
445.50000, 
446.00000,1.048004
446.50000, 
447.00000,1.047287
447.50000, 
448.00000,1.046234
448.50000, 
449.00000,1.045456
449.50000, 
450.00000,1.044601
450.50000, 
451.00000,1.043945
451.50000, 
452.00000,1.043228
452.50000, 
453.00000,1.042480
453.50000, 
454.00000,1.041748
454.50000, 
455.00000,1.040848
455.50000, 
456.00000,1.040283
456.50000, 
457.00000,1.039490
457.50000, 
458.00000,1.038818
458.50000, 
459.00000,1.038162
459.50000, 
460.00000,1.037613
460.50000, 
461.00000,1.036865
461.50000, 
462.00000,1.036102
462.50000, 
463.00000,1.035431
463.50000, 
464.00000,1.034592
464.50000, 
465.00000,1.033691
465.50000, 
466.00000,1.032547
466.50000, 
467.00000,1.031372
467.50000, 
468.00000,1.030273
468.50000, 
469.00000,1.028580
469.50000, 
470.00000,1.026688
470.50000, 
471.00000,1.024139
471.50000, 
472.00000,1.020370
472.50000, 
473.00000,1.014481
473.50000, 
474.00000,1.011856
474.50000, 
475.00000,1.013199
475.50000, 
476.00000,1.015686
476.50000, 
477.00000,1.019058
477.50000, 
478.00000,1.023254
478.50000, 
479.00000,1.028580
479.50000, 
480.00000,1.035004
480.50000, 
481.00000,1.042953
481.50000, 
482.00000,1.052444
482.50000, 
483.00000,1.063736
483.50000, 
484.00000,1.077271
484.50000, 
485.00000,1.091888
485.50000, 
486.00000,1.107864
486.50000, 
487.00000,1.125336
487.50000, 
488.00000,1.142838
488.50000, 
489.00000,1.159134
489.50000, 
490.00000,1.174179
490.50000, 
491.00000,1.186707
491.50000, 
492.00000,1.195938
492.50000, 
493.00000,1.202377
493.50000, 
494.00000,1.205780
494.50000, 
495.00000,1.206070
495.50000, 
496.00000,1.203796
496.50000, 
497.00000,1.199982
497.50000, 
498.00000,1.194458
498.50000, 
499.00000,1.188538
499.50000, 
500.00000,1.181976
500.50000, 
501.00000,1.174728
501.50000, 
502.00000,1.167557
502.50000, 
503.00000,1.160583
503.50000, 
504.00000,1.153732
504.50000, 
505.00000,1.147018
505.50000, 
506.00000,1.140457
506.50000, 
507.00000,1.134460
507.50000, 
508.00000,1.128784
508.50000, 
509.00000,1.123611
509.50000, 
510.00000,1.118851
510.50000, 
511.00000,1.114441
511.50000, 
512.00000,1.110092
512.50000, 
513.00000,1.106018
513.50000, 
514.00000,1.102188
514.50000, 
515.00000,1.098358
515.50000, 
516.00000,1.094894
516.50000, 
517.00000,1.091660
517.50000, 
518.00000,1.088501
518.50000, 
519.00000,1.085800
519.50000, 
520.00000,1.082977
520.50000, 
521.00000,1.080322
521.50000, 
522.00000,1.077850
522.50000, 
523.00000,1.075394
523.50000, 
524.00000,1.072922
524.50000, 
525.00000,1.070679
525.50000, 
526.00000,1.068344
526.50000, 
527.00000,1.066208
527.50000, 
528.00000,1.064117
528.50000, 
529.00000,1.062134
529.50000, 
530.00000,1.060043
530.50000, 
531.00000,1.058334
531.50000, 
532.00000,1.056641
532.50000, 
533.00000,1.054932
533.50000, 
534.00000,1.053284
534.50000, 
535.00000,1.051788
535.50000, 
536.00000,1.049927
536.50000, 
537.00000,1.047791
537.50000, 
538.00000,1.046402
538.50000, 
539.00000,1.045288
539.50000, 
540.00000,1.044174
540.50000, 
541.00000,1.042984
541.50000, 
542.00000,1.041870
542.50000, 
543.00000,1.040710
543.50000, 
544.00000,1.039642
544.50000, 
545.00000,1.038544
545.50000, 
546.00000,1.037491
546.50000, 
547.00000,1.036331
547.50000, 
548.00000,1.035355
548.50000, 
549.00000,1.034332
549.50000, 
550.00000,1.033112
550.50000, 
551.00000,1.031937
551.50000, 
552.00000,1.030746
552.50000, 
553.00000,1.029419
553.50000, 
554.00000,1.028030
554.50000, 
555.00000,1.026703
555.50000, 
556.00000,1.025177
556.50000, 
557.00000,1.023682
557.50000, 
558.00000,1.022003
558.50000, 
559.00000,1.020569
559.50000, 
560.00000,1.019012
560.50000, 
561.00000,1.017303
561.50000, 
562.00000,1.015549
562.50000, 
563.00000,1.013947
563.50000, 
564.00000,1.012177
564.50000, 
565.00000,1.010254
565.50000, 
566.00000,1.008392
566.50000, 
567.00000,1.006668
567.50000, 
568.00000,1.004791
568.50000, 
569.00000,1.002808
569.50000, 
570.00000,1.000916
570.50000, 
571.00000,0.999207
571.50000, 
572.00000,0.997360
572.50000, 
573.00000,0.995575
573.50000, 
574.00000,0.993759
574.50000, 
575.00000,0.991898
575.50000, 
576.00000,0.990173
576.50000, 
577.00000,0.988358
577.50000, 
578.00000,0.986633
578.50000, 
579.00000,0.985123
579.50000, 
580.00000,0.983643
580.50000, 
581.00000,0.982208
581.50000, 
582.00000,0.980942
582.50000, 
583.00000,0.979675
583.50000, 
584.00000,0.978424
584.50000, 
585.00000,0.977325
585.50000, 
586.00000,0.976257
586.50000, 
587.00000,0.975342
587.50000, 
588.00000,0.974472
588.50000, 
589.00000,0.973663
589.50000, 
590.00000,0.972916
590.50000, 
591.00000,0.972244
591.50000, 
592.00000,0.971664
592.50000, 
593.00000,0.970901
593.50000, 
594.00000,0.970215
594.50000, 
595.00000,0.969498
595.50000, 
596.00000,0.968704
596.50000, 
597.00000,0.968018
597.50000, 
598.00000,0.967194
598.50000, 
599.00000,0.966324
599.50000, 
600.00000,0.965347
600.50000, 
601.00000,0.964310
601.50000, 
602.00000,0.963181
602.50000, 
603.00000,0.961914
603.50000, 
604.00000,0.960388
604.50000, 
605.00000,0.958862
605.50000, 
606.00000,0.957230
606.50000, 
607.00000,0.955429
607.50000, 
608.00000,0.953613
608.50000, 
609.00000,0.951721
609.50000, 
610.00000,0.949524
610.50000, 
611.00000,0.947510
611.50000, 
612.00000,0.945282
612.50000, 
613.00000,0.942764
613.50000, 
614.00000,0.940308
614.50000, 
615.00000,0.937576
615.50000, 
616.00000,0.934937
616.50000, 
617.00000,0.932343
617.50000, 
618.00000,0.929443
618.50000, 
619.00000,0.926575
619.50000, 
620.00000,0.923691
620.50000, 
621.00000,0.920670
621.50000, 
622.00000,0.917465
622.50000, 
623.00000,0.914246
623.50000, 
624.00000,0.910889
624.50000, 
625.00000,0.907486
625.50000, 
626.00000,0.904114
626.50000, 
627.00000,0.900482
627.50000, 
628.00000,0.896606
628.50000, 
629.00000,0.892746
629.50000, 
630.00000,0.888321
630.50000, 
631.00000,0.883469
631.50000, 
632.00000,0.877579
632.50000, 
633.00000,0.869537
633.50000, 
634.00000,0.857483
634.50000, 
635.00000,0.855362
635.50000, 
636.00000,0.867554
636.50000, 
637.00000,0.884140
637.50000, 
638.00000,0.904922
638.50000, 
639.00000,0.931229
639.50000, 
640.00000,0.961563
640.50000, 
641.00000,0.994736
641.50000, 
642.00000,1.029800
642.50000, 
643.00000,1.063538
643.50000, 
644.00000,1.092880
644.50000, 
645.00000,1.114548
645.50000, 
646.00000,1.127655
646.50000, 
647.00000,1.131821
647.50000, 
648.00000,1.127914
648.50000, 
649.00000,1.117767
649.50000, 
650.00000,1.103714
650.50000, 
651.00000,1.087555
651.50000, 
652.00000,1.070602
652.50000, 
653.00000,1.054077
653.50000, 
654.00000,1.038269
654.50000, 
655.00000,1.023529
655.50000, 
656.00000,1.010132
656.50000, 
657.00000,0.997849
657.50000, 
658.00000,0.986755
658.50000, 
659.00000,0.976364
659.50000, 
660.00000,0.966568
660.50000, 
661.00000,0.957642
661.50000, 
662.00000,0.949722
662.50000, 
663.00000,0.942429
663.50000, 
664.00000,0.935608
664.50000, 
665.00000,0.929291
665.50000, 
666.00000,0.923584
666.50000, 
667.00000,0.918335
667.50000, 
668.00000,0.913330
668.50000, 
669.00000,0.908508
669.50000, 
670.00000,0.904022
670.50000, 
671.00000,0.899796
671.50000, 
672.00000,0.895660
672.50000, 
673.00000,0.892136
673.50000, 
674.00000,0.888474
674.50000, 
675.00000,0.885086
675.50000, 
676.00000,0.881851
676.50000, 
677.00000,0.879013
677.50000, 
678.00000,0.876083
678.50000, 
679.00000,0.873444
679.50000, 
680.00000,0.870789
680.50000, 
681.00000,0.868332
681.50000, 
682.00000,0.865936
682.50000, 
683.00000,0.863861
683.50000, 
684.00000,0.861755
684.50000, 
685.00000,0.859787
685.50000, 
686.00000,0.857819
686.50000, 
687.00000,0.856033
687.50000, 
688.00000,0.854187
688.50000, 
689.00000,0.852676
689.50000, 
690.00000,0.850876
690.50000, 
691.00000,0.849304
691.50000, 
692.00000,0.847839
692.50000, 
693.00000,0.846390
693.50000, 
694.00000,0.845016
694.50000, 
695.00000,0.843567
695.50000, 
696.00000,0.842209
696.50000, 
697.00000,0.840820
697.50000, 
698.00000,0.839569
698.50000, 
699.00000,0.838272
699.50000, 
700.00000,0.837021
700.50000, 
701.00000,0.835770
701.50000, 
702.00000,0.834702
702.50000, 
703.00000,0.833527
703.50000, 
704.00000,0.832474
704.50000, 
705.00000,0.831345
705.50000, 
706.00000,0.830399
706.50000, 
707.00000,0.829193
707.50000, 
708.00000,0.828262
708.50000, 
709.00000,0.827103
709.50000, 
710.00000,0.826111
710.50000, 
711.00000,0.825027
711.50000, 
712.00000,0.823868
712.50000, 
713.00000,0.822906
713.50000, 
714.00000,0.821701
714.50000, 
715.00000,0.820679
715.50000, 
716.00000,0.819473
716.50000, 
717.00000,0.818405
717.50000, 
718.00000,0.817245
718.50000, 
719.00000,0.816208
719.50000, 
720.00000,0.815063
720.50000, 
721.00000,0.814072
721.50000, 
722.00000,0.812988
722.50000, 
723.00000,0.811951
723.50000, 
724.00000,0.810989
724.50000, 
725.00000,0.809952
725.50000, 
726.00000,0.809113
726.50000, 
727.00000,0.808075
727.50000, 
728.00000,0.807190
728.50000, 
729.00000,0.806412
729.50000, 
730.00000,0.805557
730.50000, 
731.00000,0.804764
731.50000, 
732.00000,0.803925
732.50000, 
733.00000,0.803223
733.50000, 
734.00000,0.802536
734.50000, 
735.00000,0.801758
735.50000, 
736.00000,0.801132
736.50000, 
737.00000,0.800415
737.50000, 
738.00000,0.799683
738.50000, 
739.00000,0.799011
739.50000, 
740.00000,0.798279
740.50000, 
741.00000,0.797714
741.50000, 
742.00000,0.797028
742.50000, 
743.00000,0.796478
743.50000, 
744.00000,0.795807
744.50000, 
745.00000,0.795135
745.50000, 
746.00000,0.794464
746.50000, 
747.00000,0.793777
747.50000, 
748.00000,0.793060
748.50000, 
749.00000,0.792480
749.50000, 
750.00000,0.791962
750.50000, 
751.00000,0.791367
751.50000, 
752.00000,0.790771
752.50000, 
753.00000,0.790421
753.50000, 
754.00000,0.789856
754.50000, 
755.00000,0.789429
755.50000, 
756.00000,0.788940
756.50000, 
757.00000,0.788376
757.50000, 
758.00000,0.788101
758.50000, 
759.00000,0.787460
759.50000, 
760.00000,0.787277
760.50000, 
761.00000,0.786636
761.50000, 
762.00000,0.786224
762.50000, 
763.00000,0.785843
763.50000, 
764.00000,0.785400
764.50000, 
765.00000,0.785080
765.50000, 
766.00000,0.784653
766.50000, 
767.00000,0.784317
767.50000, 
768.00000,0.783905
768.50000, 
769.00000,0.783646
769.50000, 
770.00000,0.783112
770.50000, 
771.00000,0.782867
771.50000, 
772.00000,0.782394
772.50000, 
773.00000,0.782059
773.50000, 
774.00000,0.781723
774.50000, 
775.00000,0.781219
775.50000, 
776.00000,0.780991
776.50000, 
777.00000,0.780457
777.50000, 
778.00000,0.780350
778.50000, 
779.00000,0.779816
779.50000, 
780.00000,0.779541
780.50000, 
781.00000,0.779114
781.50000, 
782.00000,0.778793
782.50000, 
783.00000,0.778183
783.50000, 
784.00000,0.778046
784.50000, 
785.00000,0.777313
785.50000, 
786.00000,0.777069
786.50000, 
787.00000,0.776505
787.50000, 
788.00000,0.775909
788.50000, 
789.00000,0.775467
789.50000, 
790.00000,0.774872
790.50000, 
791.00000,0.774231
791.50000, 
792.00000,0.773666
792.50000, 
793.00000,0.772858
793.50000, 
794.00000,0.772079
794.50000, 
795.00000,0.771393
795.50000, 
796.00000,0.770279
796.50000, 
797.00000,0.769592
797.50000, 
798.00000,0.768387
798.50000, 
799.00000,0.767426
799.50000, 
800.00000,0.766312
800.50000, 
801.00000,0.765137
801.50000, 
802.00000,0.763672
802.50000, 
803.00000,0.762680
803.50000, 
804.00000,0.760925
804.50000, 
805.00000,0.759583
805.50000, 
806.00000,0.758026
806.50000, 
807.00000,0.756119
807.50000, 
808.00000,0.754303
808.50000, 
809.00000,0.752441
809.50000, 
810.00000,0.749924
810.50000, 
811.00000,0.747894
811.50000, 
812.00000,0.745514
812.50000, 
813.00000,0.742813
813.50000, 
814.00000,0.740265
814.50000, 
815.00000,0.737549
815.50000, 
816.00000,0.734283
816.50000, 
817.00000,0.731400
817.50000, 
818.00000,0.727921
818.50000, 
819.00000,0.724533
819.50000, 
820.00000,0.721390
820.50000, 
821.00000,0.717499
821.50000, 
822.00000,0.713776
822.50000, 
823.00000,0.710159
823.50000, 
824.00000,0.706192
824.50000, 
825.00000,0.701874
825.50000, 
826.00000,0.698288
826.50000, 
827.00000,0.693665
827.50000, 
828.00000,0.689148
828.50000, 
829.00000,0.684738
829.50000, 
830.00000,0.680115
830.50000, 
831.00000,0.674911
831.50000, 
832.00000,0.670364
832.50000, 
833.00000,0.665222
833.50000, 
834.00000,0.659821
834.50000, 
835.00000,0.654984
835.50000, 
836.00000,0.649231
836.50000, 
837.00000,0.643570
837.50000, 
838.00000,0.638092
838.50000, 
839.00000,0.632401
839.50000, 
840.00000,0.626465
840.50000, 
841.00000,0.621490
841.50000, 
842.00000,0.615570
842.50000, 
843.00000,0.609726
843.50000, 
844.00000,0.604004
844.50000, 
845.00000,0.598236
845.50000, 
846.00000,0.592117
846.50000, 
847.00000,0.586609
847.50000, 
848.00000,0.581116
848.50000, 
849.00000,0.574753
849.50000, 
850.00000,0.569412
850.50000, 
851.00000,0.563751
851.50000, 
852.00000,0.557770
852.50000, 
853.00000,0.551712
853.50000, 
854.00000,0.546036
854.50000, 
855.00000,0.539795
855.50000, 
856.00000,0.533783
856.50000, 
857.00000,0.528503
857.50000, 
858.00000,0.522018
858.50000, 
859.00000,0.516098
859.50000, 
860.00000,0.510498
860.50000, 
861.00000,0.504990
861.50000, 
862.00000,0.498627
862.50000, 
863.00000,0.493423
863.50000, 
864.00000,0.487946
864.50000, 
865.00000,0.481934
865.50000, 
866.00000,0.476852
866.50000, 
867.00000,0.471802
867.50000, 
868.00000,0.466324
868.50000, 
869.00000,0.461060
869.50000, 
870.00000,0.456604
870.50000, 
871.00000,0.451416
871.50000, 
872.00000,0.446106
872.50000, 
873.00000,0.441727
873.50000, 
874.00000,0.437012
874.50000, 
875.00000,0.431854
875.50000, 
876.00000,0.427307
876.50000, 
877.00000,0.423065
877.50000, 
878.00000,0.417908
878.50000, 
879.00000,0.413193
879.50000, 
880.00000,0.409119
880.50000, 
881.00000,0.404205
881.50000, 
882.00000,0.399506
882.50000, 
883.00000,0.395752
883.50000, 
884.00000,0.391663
884.50000, 
885.00000,0.386978
885.50000, 
886.00000,0.383392
886.50000, 
887.00000,0.379883
887.50000, 
888.00000,0.375412
888.50000, 
889.00000,0.371674
889.50000, 
890.00000,0.368683
890.50000, 
891.00000,0.365097
891.50000, 
892.00000,0.361206
892.50000, 
893.00000,0.358276
893.50000, 
894.00000,0.355331
894.50000, 
895.00000,0.351730
895.50000, 
896.00000,0.348343
896.50000, 
897.00000,0.345673
897.50000, 
898.00000,0.342804
898.50000, 
899.00000,0.339127
899.50000, 
900.00000,0.336868
900.50000, 
901.00000, 
901.50000, 
902.00000, 
902.50000, 
903.00000, 
903.50000, 
904.00000, 
904.50000, 
905.00000, 
905.50000, 
906.00000, 
906.50000, 
907.00000, 
907.50000, 
908.00000, 
908.50000, 
909.00000, 
909.50000, 
910.00000, 
910.50000, 
911.00000, 
911.50000, 
912.00000, 
912.50000, 
913.00000, 
913.50000, 
914.00000, 
914.50000, 
915.00000, 
915.50000, 
916.00000, 
916.50000, 
917.00000, 
917.50000, 
918.00000, 
918.50000, 
919.00000, 
919.50000, 
920.00000, 
920.50000, 
921.00000, 
921.50000, 
922.00000, 
922.50000, 
923.00000, 
923.50000, 
924.00000, 
924.50000, 
925.00000, 
925.50000, 
926.00000, 
926.50000, 
927.00000, 
927.50000, 
928.00000, 
928.50000, 
929.00000, 
929.50000, 
930.00000, 
930.50000, 
931.00000, 
931.50000, 
932.00000, 
932.50000, 
933.00000, 
933.50000, 
934.00000, 
934.50000, 
935.00000, 
935.50000, 
936.00000, 
936.50000, 
937.00000, 
937.50000, 
938.00000, 
938.50000, 
939.00000, 
939.50000, 
940.00000, 
940.50000, 
941.00000, 
941.50000, 
942.00000, 
942.50000, 
943.00000, 
943.50000, 
944.00000, 
944.50000, 
945.00000, 
945.50000, 
946.00000, 
946.50000, 
947.00000, 
947.50000, 
948.00000, 
948.50000, 
949.00000, 
949.50000, 
950.00000, 
950.50000, 
951.00000, 
951.50000, 
952.00000, 
952.50000, 
953.00000, 
953.50000, 
954.00000, 
954.50000, 
955.00000, 
955.50000, 
956.00000, 
956.50000, 
957.00000, 
957.50000, 
958.00000, 
958.50000, 
959.00000, 
959.50000, 
960.00000, 
960.50000, 
961.00000, 
961.50000, 
962.00000, 
962.50000, 
963.00000, 
963.50000, 
964.00000, 
964.50000, 
965.00000, 
965.50000, 
966.00000, 
966.50000, 
967.00000, 
967.50000, 
968.00000, 
968.50000, 
969.00000, 
969.50000, 
970.00000, 
970.50000, 
971.00000, 
971.50000, 
972.00000, 
972.50000, 
973.00000, 
973.50000, 
974.00000, 
974.50000, 
975.00000, 
975.50000, 
976.00000, 
976.50000, 
977.00000, 
977.50000, 
978.00000, 
978.50000, 
979.00000, 
979.50000, 
980.00000, 
980.50000, 
981.00000, 
981.50000, 
982.00000, 
982.50000, 
983.00000, 
983.50000, 
984.00000, 
984.50000, 
985.00000, 
985.50000, 
986.00000, 
986.50000, 
987.00000, 
987.50000, 
988.00000, 
988.50000, 
989.00000, 
989.50000, 
990.00000, 
990.50000, 
991.00000, 
991.50000, 
992.00000, 
992.50000, 
993.00000, 
993.50000, 
994.00000, 
994.50000, 
995.00000, 
995.50000, 
996.00000, 
996.50000, 
997.00000, 
997.50000, 
998.00000, 
998.50000, 
999.00000, 
999.50000, 
1000.00000, 
1000.50000, 
1001.00000, 
1001.50000, 
1002.00000, 
1002.50000, 
1003.00000, 
1003.50000, 
1004.00000, 
1004.50000, 
1005.00000, 
1005.50000, 
1006.00000, 
1006.50000, 
1007.00000, 
1007.50000, 
1008.00000, 
1008.50000, 
1009.00000, 
1009.50000, 
1010.00000, 
1010.50000, 
1011.00000, 
1011.50000, 
1012.00000, 
1012.50000, 
1013.00000, 
1013.50000, 
1014.00000, 
1014.50000, 
1015.00000, 
1015.50000, 
1016.00000, 
1016.50000, 
1017.00000, 
1017.50000, 
1018.00000, 
1018.50000, 
1019.00000, 
1019.50000, 
1020.00000, 
1020.50000, 
1021.00000, 
1021.50000, 
1022.00000, 
1022.50000, 
1023.00000, 
1023.50000, 
1024.00000, 
1024.50000, 
1025.00000, 
1025.50000, 
1026.00000, 
1026.50000, 
1027.00000, 
1027.50000, 
1028.00000, 
1028.50000, 
1029.00000, 
1029.50000, 
1030.00000, 
1030.50000, 
1031.00000, 
1031.50000, 
1032.00000, 
1032.50000, 
1033.00000, 
1033.50000, 
1034.00000, 
1034.50000, 
1035.00000, 
1035.50000, 
1036.00000, 
1036.50000, 
1037.00000, 
1037.50000, 
1038.00000, 
1038.50000, 
1039.00000, 
1039.50000, 
1040.00000, 
1040.50000, 
1041.00000, 
1041.50000, 
1042.00000, 
1042.50000, 
1043.00000, 
1043.50000, 
1044.00000, 
1044.50000, 
1045.00000, 
1045.50000, 
1046.00000, 
1046.50000, 
1047.00000, 
1047.50000, 
1048.00000, 
1048.50000, 
1049.00000, 
1049.50000, 
1050.00000, 
1050.50000, 
1051.00000, 
1051.50000, 
1052.00000, 
1052.50000, 
1053.00000, 
1053.50000, 
1054.00000, 
1054.50000, 
1055.00000, 
1055.50000, 
1056.00000, 
1056.50000, 
1057.00000, 
1057.50000, 
1058.00000, 
1058.50000, 
1059.00000, 
1059.50000, 
1060.00000, 
1060.50000, 
1061.00000, 
1061.50000, 
1062.00000, 
1062.50000, 
1063.00000, 
1063.50000, 
1064.00000, 
1064.50000, 
1065.00000, 
1065.50000, 
1066.00000, 
1066.50000, 
1067.00000, 
1067.50000, 
1068.00000, 
1068.50000, 
1069.00000, 
1069.50000, 
1070.00000, 
1070.50000, 
1071.00000, 
1071.50000, 
1072.00000, 
1072.50000, 
1073.00000, 
1073.50000, 
1074.00000, 
1074.50000, 
1075.00000, 
1075.50000, 
1076.00000, 
1076.50000, 
1077.00000, 
1077.50000, 
1078.00000, 
1078.50000, 
1079.00000, 
1079.50000, 
1080.00000, 
1080.50000, 
1081.00000, 
1081.50000, 
1082.00000, 
1082.50000, 
1083.00000, 
1083.50000, 
1084.00000, 
1084.50000, 
1085.00000, 
1085.50000, 
1086.00000, 
1086.50000, 
1087.00000, 
1087.50000, 
1088.00000, 
1088.50000, 
1089.00000, 
1089.50000, 
1090.00000, 
1090.50000, 
1091.00000, 
1091.50000, 
1092.00000, 
1092.50000, 
1093.00000, 
1093.50000, 
1094.00000, 
1094.50000, 
1095.00000, 
1095.50000, 
1096.00000, 
1096.50000, 
1097.00000, 
1097.50000, 
1098.00000, 
1098.50000, 
1099.00000, 
1099.50000, 
1100.00000, 
