"30%H - RawData"
"Wavelength nm.","Abs."
300.00000,3.971008
300.50000, 
301.00000,3.982407
301.50000, 
302.00000,3.958084
302.50000, 
303.00000,3.975693
303.50000, 
304.00000,3.979294
304.50000, 
305.00000,3.982300
305.50000, 
306.00000,3.967972
306.50000, 
307.00000,3.929092
307.50000, 
308.00000,3.930542
308.50000, 
309.00000,3.929855
309.50000, 
310.00000,3.913788
310.50000, 
311.00000,3.915375
311.50000, 
312.00000,3.925125
312.50000, 
313.00000,3.943314
313.50000, 
314.00000,3.884369
314.50000, 
315.00000,3.925674
315.50000, 
316.00000,3.902725
316.50000, 
317.00000,3.948334
317.50000, 
318.00000,3.915314
318.50000, 
319.00000,3.807678
319.50000, 
320.00000,3.898895
320.50000, 
321.00000,3.987595
321.50000, 
322.00000,3.941101
322.50000, 
323.00000,3.957733
323.50000, 
324.00000,3.900223
324.50000, 
325.00000,3.985504
325.50000, 
326.00000,3.878738
326.50000, 
327.00000,3.994461
327.50000, 
328.00000,3.975174
328.50000, 
329.00000,3.976532
329.50000, 
330.00000,3.918991
330.50000, 
331.00000,3.769684
331.50000, 
332.00000,3.847275
332.50000, 
333.00000,3.948624
333.50000, 
334.00000,3.815231
334.50000, 
335.00000,3.888855
335.50000, 
336.00000,3.893021
336.50000, 
337.00000,3.873825
337.50000, 
338.00000,3.784210
338.50000, 
339.00000,3.941788
339.50000, 
340.00000,3.955246
340.50000, 
341.00000,3.975540
341.50000, 
342.00000,3.925003
342.50000, 
343.00000,3.977325
343.50000, 
344.00000,4.000000
344.50000, 
345.00000,3.874237
345.50000, 
346.00000,3.964554
346.50000, 
347.00000,3.973587
347.50000, 
348.00000,3.953827
348.50000, 
349.00000,3.911880
349.50000, 
350.00000,3.942764
350.50000, 
351.00000,3.958908
351.50000, 
352.00000,3.971939
352.50000, 
353.00000,3.885483
353.50000, 
354.00000,3.973602
354.50000, 
355.00000,3.980209
355.50000, 
356.00000,3.989578
356.50000, 
357.00000,3.909378
357.50000, 
358.00000,3.810730
358.50000, 
359.00000,3.962143
359.50000, 
360.00000,3.867767
360.50000, 
361.00000,3.910690
361.50000, 
362.00000,3.917877
362.50000, 
363.00000,3.758759
363.50000, 
364.00000,3.897919
364.50000, 
365.00000,3.974915
365.50000, 
366.00000,3.698700
366.50000, 
367.00000,3.856384
367.50000, 
368.00000,3.892471
368.50000, 
369.00000,3.886642
369.50000, 
370.00000,3.883331
370.50000, 
371.00000,3.928375
371.50000, 
372.00000,3.860519
372.50000, 
373.00000,3.799850
373.50000, 
374.00000,3.767609
374.50000, 
375.00000,3.839371
375.50000, 
376.00000,3.921814
376.50000, 
377.00000,3.798035
377.50000, 
378.00000,3.903549
378.50000, 
379.00000,3.951569
379.50000, 
380.00000,3.876221
380.50000, 
381.00000,3.640198
381.50000, 
382.00000,3.399231
382.50000, 
383.00000,3.168121
383.50000, 
384.00000,2.969391
384.50000, 
385.00000,2.742737
385.50000, 
386.00000,2.570007
386.50000, 
387.00000,2.374283
387.50000, 
388.00000,2.193741
388.50000, 
389.00000,2.041290
389.50000, 
390.00000,1.910049
390.50000, 
391.00000,1.785583
391.50000, 
392.00000,1.676697
392.50000, 
393.00000,1.580139
393.50000, 
394.00000,1.485123
394.50000, 
395.00000,1.405121
395.50000, 
396.00000,1.331650
396.50000, 
397.00000,1.268082
397.50000, 
398.00000,1.212402
398.50000, 
399.00000,1.163391
399.50000, 
400.00000,1.120911
400.50000, 
401.00000,1.083969
401.50000, 
402.00000,1.053116
402.50000, 
403.00000,1.028412
403.50000, 
404.00000,1.006134
404.50000, 
405.00000,0.989014
405.50000, 
406.00000,0.974304
406.50000, 
407.00000,0.961990
407.50000, 
408.00000,0.951721
408.50000, 
409.00000,0.943130
409.50000, 
410.00000,0.935501
410.50000, 
411.00000,0.929443
411.50000, 
412.00000,0.924347
412.50000, 
413.00000,0.919540
413.50000, 
414.00000,0.915482
414.50000, 
415.00000,0.911957
415.50000, 
416.00000,0.908722
416.50000, 
417.00000,0.905807
417.50000, 
418.00000,0.903275
418.50000, 
419.00000,0.900864
419.50000, 
420.00000,0.898544
420.50000, 
421.00000,0.896347
421.50000, 
422.00000,0.894638
422.50000, 
423.00000,0.892807
423.50000, 
424.00000,0.891083
424.50000, 
425.00000,0.889587
425.50000, 
426.00000,0.887985
426.50000, 
427.00000,0.886795
427.50000, 
428.00000,0.885757
428.50000, 
429.00000,0.884644
429.50000, 
430.00000,0.883759
430.50000, 
431.00000,0.882935
431.50000, 
432.00000,0.881836
432.50000, 
433.00000,0.881287
433.50000, 
434.00000,0.880661
434.50000, 
435.00000,0.880112
435.50000, 
436.00000,0.879135
436.50000, 
437.00000,0.878143
437.50000, 
438.00000,0.877274
438.50000, 
439.00000,0.876358
439.50000, 
440.00000,0.875488
440.50000, 
441.00000,0.874695
441.50000, 
442.00000,0.873871
442.50000, 
443.00000,0.872971
443.50000, 
444.00000,0.872009
444.50000, 
445.00000,0.871277
445.50000, 
446.00000,0.870544
446.50000, 
447.00000,0.869812
447.50000, 
448.00000,0.869217
448.50000, 
449.00000,0.868607
449.50000, 
450.00000,0.868011
450.50000, 
451.00000,0.867355
451.50000, 
452.00000,0.866776
452.50000, 
453.00000,0.866135
453.50000, 
454.00000,0.865601
454.50000, 
455.00000,0.865204
455.50000, 
456.00000,0.864792
456.50000, 
457.00000,0.864243
457.50000, 
458.00000,0.863785
458.50000, 
459.00000,0.863464
459.50000, 
460.00000,0.862991
460.50000, 
461.00000,0.862732
461.50000, 
462.00000,0.862366
462.50000, 
463.00000,0.862305
463.50000, 
464.00000,0.862106
464.50000, 
465.00000,0.862213
465.50000, 
466.00000,0.862137
466.50000, 
467.00000,0.862183
467.50000, 
468.00000,0.862396
468.50000, 
469.00000,0.862915
469.50000, 
470.00000,0.863480
470.50000, 
471.00000,0.864655
471.50000, 
472.00000,0.866714
472.50000, 
473.00000,0.870132
473.50000, 
474.00000,0.871475
474.50000, 
475.00000,0.869629
475.50000, 
476.00000,0.867142
476.50000, 
477.00000,0.864105
477.50000, 
478.00000,0.860260
478.50000, 
479.00000,0.855896
479.50000, 
480.00000,0.850601
480.50000, 
481.00000,0.844604
481.50000, 
482.00000,0.837952
482.50000, 
483.00000,0.830566
483.50000, 
484.00000,0.822067
484.50000, 
485.00000,0.813202
485.50000, 
486.00000,0.803955
486.50000, 
487.00000,0.794556
487.50000, 
488.00000,0.785706
488.50000, 
489.00000,0.777924
489.50000, 
490.00000,0.771011
490.50000, 
491.00000,0.765350
491.50000, 
492.00000,0.761093
492.50000, 
493.00000,0.757935
493.50000, 
494.00000,0.756012
494.50000, 
495.00000,0.755173
495.50000, 
496.00000,0.755173
496.50000, 
497.00000,0.755905
497.50000, 
498.00000,0.757172
498.50000, 
499.00000,0.758896
499.50000, 
500.00000,0.760681
500.50000, 
501.00000,0.762695
501.50000, 
502.00000,0.764938
502.50000, 
503.00000,0.767059
503.50000, 
504.00000,0.769058
504.50000, 
505.00000,0.771149
505.50000, 
506.00000,0.773148
506.50000, 
507.00000,0.774933
507.50000, 
508.00000,0.776657
508.50000, 
509.00000,0.778137
509.50000, 
510.00000,0.779587
510.50000, 
511.00000,0.780838
511.50000, 
512.00000,0.781876
512.50000, 
513.00000,0.782883
513.50000, 
514.00000,0.783798
514.50000, 
515.00000,0.784561
515.50000, 
516.00000,0.785217
516.50000, 
517.00000,0.785812
517.50000, 
518.00000,0.786194
518.50000, 
519.00000,0.786606
519.50000, 
520.00000,0.786819
520.50000, 
521.00000,0.787125
521.50000, 
522.00000,0.787262
522.50000, 
523.00000,0.787323
523.50000, 
524.00000,0.787399
524.50000, 
525.00000,0.787369
525.50000, 
526.00000,0.787323
526.50000, 
527.00000,0.787140
527.50000, 
528.00000,0.786911
528.50000, 
529.00000,0.786774
529.50000, 
530.00000,0.786652
530.50000, 
531.00000,0.786346
531.50000, 
532.00000,0.786118
532.50000, 
533.00000,0.785858
533.50000, 
534.00000,0.785461
534.50000, 
535.00000,0.785156
535.50000, 
536.00000,0.784683
536.50000, 
537.00000,0.783890
537.50000, 
538.00000,0.783463
538.50000, 
539.00000,0.783279
539.50000, 
540.00000,0.782867
540.50000, 
541.00000,0.782516
541.50000, 
542.00000,0.782104
542.50000, 
543.00000,0.781647
543.50000, 
544.00000,0.781082
544.50000, 
545.00000,0.780670
545.50000, 
546.00000,0.780182
546.50000, 
547.00000,0.779510
547.50000, 
548.00000,0.778885
548.50000, 
549.00000,0.778259
549.50000, 
550.00000,0.777420
550.50000, 
551.00000,0.776611
551.50000, 
552.00000,0.775696
552.50000, 
553.00000,0.774750
553.50000, 
554.00000,0.773743
554.50000, 
555.00000,0.772583
555.50000, 
556.00000,0.771347
556.50000, 
557.00000,0.770004
557.50000, 
558.00000,0.768509
558.50000, 
559.00000,0.767120
559.50000, 
560.00000,0.765701
560.50000, 
561.00000,0.764130
561.50000, 
562.00000,0.762604
562.50000, 
563.00000,0.760895
563.50000, 
564.00000,0.759094
564.50000, 
565.00000,0.757263
565.50000, 
566.00000,0.755508
566.50000, 
567.00000,0.753632
567.50000, 
568.00000,0.751663
568.50000, 
569.00000,0.749832
569.50000, 
570.00000,0.747849
570.50000, 
571.00000,0.745880
571.50000, 
572.00000,0.743927
572.50000, 
573.00000,0.741989
573.50000, 
574.00000,0.739975
574.50000, 
575.00000,0.737930
575.50000, 
576.00000,0.736053
576.50000, 
577.00000,0.734177
577.50000, 
578.00000,0.732193
578.50000, 
579.00000,0.730377
579.50000, 
580.00000,0.728577
580.50000, 
581.00000,0.726822
581.50000, 
582.00000,0.725174
582.50000, 
583.00000,0.723587
583.50000, 
584.00000,0.722046
584.50000, 
585.00000,0.720627
585.50000, 
586.00000,0.719238
586.50000, 
587.00000,0.717896
587.50000, 
588.00000,0.716583
588.50000, 
589.00000,0.715347
589.50000, 
590.00000,0.714172
590.50000, 
591.00000,0.713104
591.50000, 
592.00000,0.712082
592.50000, 
593.00000,0.710861
593.50000, 
594.00000,0.709656
594.50000, 
595.00000,0.708466
595.50000, 
596.00000,0.707275
596.50000, 
597.00000,0.706070
597.50000, 
598.00000,0.704773
598.50000, 
599.00000,0.703369
599.50000, 
600.00000,0.701874
600.50000, 
601.00000,0.700333
601.50000, 
602.00000,0.698593
602.50000, 
603.00000,0.696762
603.50000, 
604.00000,0.694748
604.50000, 
605.00000,0.692703
605.50000, 
606.00000,0.690582
606.50000, 
607.00000,0.688339
607.50000, 
608.00000,0.685913
608.50000, 
609.00000,0.683395
609.50000, 
610.00000,0.680710
610.50000, 
611.00000,0.678055
611.50000, 
612.00000,0.675201
612.50000, 
613.00000,0.672272
613.50000, 
614.00000,0.669266
614.50000, 
615.00000,0.666321
615.50000, 
616.00000,0.663193
616.50000, 
617.00000,0.660004
617.50000, 
618.00000,0.656677
618.50000, 
619.00000,0.653336
619.50000, 
620.00000,0.650101
620.50000, 
621.00000,0.646667
621.50000, 
622.00000,0.643250
622.50000, 
623.00000,0.639771
623.50000, 
624.00000,0.636261
624.50000, 
625.00000,0.632889
625.50000, 
626.00000,0.629608
626.50000, 
627.00000,0.626419
627.50000, 
628.00000,0.623322
628.50000, 
629.00000,0.620422
629.50000, 
630.00000,0.617828
630.50000, 
631.00000,0.615555
631.50000, 
632.00000,0.614090
632.50000, 
633.00000,0.613907
633.50000, 
634.00000,0.615860
634.50000, 
635.00000,0.612488
635.50000, 
636.00000,0.601715
636.50000, 
637.00000,0.589157
637.50000, 
638.00000,0.575836
638.50000, 
639.00000,0.560898
639.50000, 
640.00000,0.545776
640.50000, 
641.00000,0.530991
641.50000, 
642.00000,0.517136
642.50000, 
643.00000,0.504868
643.50000, 
644.00000,0.494690
644.50000, 
645.00000,0.487015
645.50000, 
646.00000,0.481583
646.50000, 
647.00000,0.478210
647.50000, 
648.00000,0.476608
648.50000, 
649.00000,0.476501
649.50000, 
650.00000,0.477371
650.50000, 
651.00000,0.479004
651.50000, 
652.00000,0.480988
652.50000, 
653.00000,0.483215
653.50000, 
654.00000,0.485336
654.50000, 
655.00000,0.487442
655.50000, 
656.00000,0.489273
656.50000, 
657.00000,0.491074
657.50000, 
658.00000,0.492645
658.50000, 
659.00000,0.494141
659.50000, 
660.00000,0.495544
660.50000, 
661.00000,0.496674
661.50000, 
662.00000,0.497787
662.50000, 
663.00000,0.498474
663.50000, 
664.00000,0.499313
664.50000, 
665.00000,0.499878
665.50000, 
666.00000,0.500504
666.50000, 
667.00000,0.500793
667.50000, 
668.00000,0.501221
668.50000, 
669.00000,0.501465
669.50000, 
670.00000,0.501801
670.50000, 
671.00000,0.501785
671.50000, 
672.00000,0.501968
672.50000, 
673.00000,0.501938
673.50000, 
674.00000,0.501938
674.50000, 
675.00000,0.501648
675.50000, 
676.00000,0.501541
676.50000, 
677.00000,0.501266
677.50000, 
678.00000,0.501099
678.50000, 
679.00000,0.500641
679.50000, 
680.00000,0.500397
680.50000, 
681.00000,0.499908
681.50000, 
682.00000,0.499557
682.50000, 
683.00000,0.499084
683.50000, 
684.00000,0.498718
684.50000, 
685.00000,0.498138
685.50000, 
686.00000,0.497772
686.50000, 
687.00000,0.497101
687.50000, 
688.00000,0.496658
688.50000, 
689.00000,0.495987
689.50000, 
690.00000,0.495544
690.50000, 
691.00000,0.494751
691.50000, 
692.00000,0.494400
692.50000, 
693.00000,0.493607
693.50000, 
694.00000,0.493210
694.50000, 
695.00000,0.492325
695.50000, 
696.00000,0.491867
696.50000, 
697.00000,0.490997
697.50000, 
698.00000,0.490479
698.50000, 
699.00000,0.489563
699.50000, 
700.00000,0.488968
700.50000, 
701.00000,0.488098
701.50000, 
702.00000,0.487534
702.50000, 
703.00000,0.486679
703.50000, 
704.00000,0.486023
704.50000, 
705.00000,0.485245
705.50000, 
706.00000,0.484238
706.50000, 
707.00000,0.483521
707.50000, 
708.00000,0.482574
708.50000, 
709.00000,0.481842
709.50000, 
710.00000,0.480682
710.50000, 
711.00000,0.479950
711.50000, 
712.00000,0.478683
712.50000, 
713.00000,0.477921
713.50000, 
714.00000,0.476715
714.50000, 
715.00000,0.475647
715.50000, 
716.00000,0.474518
716.50000, 
717.00000,0.473236
717.50000, 
718.00000,0.472351
718.50000, 
719.00000,0.471008
719.50000, 
720.00000,0.470139
720.50000, 
721.00000,0.468735
721.50000, 
722.00000,0.467758
722.50000, 
723.00000,0.466476
723.50000, 
724.00000,0.465500
724.50000, 
725.00000,0.464279
725.50000, 
726.00000,0.463135
726.50000, 
727.00000,0.462112
727.50000, 
728.00000,0.460770
728.50000, 
729.00000,0.460037
729.50000, 
730.00000,0.458633
730.50000, 
731.00000,0.457932
731.50000, 
732.00000,0.456680
732.50000, 
733.00000,0.455673
733.50000, 
734.00000,0.454865
734.50000, 
735.00000,0.453476
735.50000, 
736.00000,0.452896
736.50000, 
737.00000,0.451599
737.50000, 
738.00000,0.450790
738.50000, 
739.00000,0.449844
739.50000, 
740.00000,0.448593
740.50000, 
741.00000,0.448044
741.50000, 
742.00000,0.446609
742.50000, 
743.00000,0.445984
743.50000, 
744.00000,0.444778
744.50000, 
745.00000,0.443787
745.50000, 
746.00000,0.442856
746.50000, 
747.00000,0.441467
747.50000, 
748.00000,0.440781
748.50000, 
749.00000,0.439377
749.50000, 
750.00000,0.438736
750.50000, 
751.00000,0.437683
751.50000, 
752.00000,0.436493
752.50000, 
753.00000,0.435989
753.50000, 
754.00000,0.434586
754.50000, 
755.00000,0.434113
755.50000, 
756.00000,0.433105
756.50000, 
757.00000,0.431992
757.50000, 
758.00000,0.431458
758.50000, 
759.00000,0.430115
759.50000, 
760.00000,0.429626
760.50000, 
761.00000,0.428696
761.50000, 
762.00000,0.427597
762.50000, 
763.00000,0.427109
763.50000, 
764.00000,0.425964
764.50000, 
765.00000,0.425140
765.50000, 
766.00000,0.424423
766.50000, 
767.00000,0.423172
767.50000, 
768.00000,0.422729
768.50000, 
769.00000,0.421616
769.50000, 
770.00000,0.420746
770.50000, 
771.00000,0.420135
771.50000, 
772.00000,0.418854
772.50000, 
773.00000,0.418503
773.50000, 
774.00000,0.417267
774.50000, 
775.00000,0.416519
775.50000, 
776.00000,0.415924
776.50000, 
777.00000,0.414749
777.50000, 
778.00000,0.414276
778.50000, 
779.00000,0.413376
779.50000, 
780.00000,0.412338
780.50000, 
781.00000,0.411942
781.50000, 
782.00000,0.410934
782.50000, 
783.00000,0.410095
783.50000, 
784.00000,0.409714
784.50000, 
785.00000,0.408401
785.50000, 
786.00000,0.407990
786.50000, 
787.00000,0.407074
787.50000, 
788.00000,0.406036
788.50000, 
789.00000,0.405502
789.50000, 
790.00000,0.404587
790.50000, 
791.00000,0.403641
791.50000, 
792.00000,0.403244
792.50000, 
793.00000,0.401871
793.50000, 
794.00000,0.401443
794.50000, 
795.00000,0.400513
795.50000, 
796.00000,0.399460
796.50000, 
797.00000,0.399078
797.50000, 
798.00000,0.398102
798.50000, 
799.00000,0.397034
799.50000, 
800.00000,0.396591
800.50000, 
801.00000,0.395325
801.50000, 
802.00000,0.394516
802.50000, 
803.00000,0.393967
803.50000, 
804.00000,0.392715
804.50000, 
805.00000,0.391937
805.50000, 
806.00000,0.391418
806.50000, 
807.00000,0.389969
807.50000, 
808.00000,0.389465
808.50000, 
809.00000,0.388412
809.50000, 
810.00000,0.387039
810.50000, 
811.00000,0.386276
811.50000, 
812.00000,0.385345
812.50000, 
813.00000,0.383926
813.50000, 
814.00000,0.383392
814.50000, 
815.00000,0.382019
815.50000, 
816.00000,0.380737
816.50000, 
817.00000,0.379791
817.50000, 
818.00000,0.378418
818.50000, 
819.00000,0.377075
819.50000, 
820.00000,0.376465
820.50000, 
821.00000,0.374619
821.50000, 
822.00000,0.373627
822.50000, 
823.00000,0.372498
823.50000, 
824.00000,0.371078
824.50000, 
825.00000,0.369675
825.50000, 
826.00000,0.368958
826.50000, 
827.00000,0.367126
827.50000, 
828.00000,0.365753
828.50000, 
829.00000,0.364685
829.50000, 
830.00000,0.362961
830.50000, 
831.00000,0.361465
831.50000, 
832.00000,0.360275
832.50000, 
833.00000,0.358688
833.50000, 
834.00000,0.356903
834.50000, 
835.00000,0.355957
835.50000, 
836.00000,0.353790
836.50000, 
837.00000,0.352310
837.50000, 
838.00000,0.350876
838.50000, 
839.00000,0.349152
839.50000, 
840.00000,0.347305
840.50000, 
841.00000,0.346176
841.50000, 
842.00000,0.344238
842.50000, 
843.00000,0.342453
843.50000, 
844.00000,0.341217
844.50000, 
845.00000,0.339172
845.50000, 
846.00000,0.337402
846.50000, 
847.00000,0.335999
847.50000, 
848.00000,0.334641
848.50000, 
849.00000,0.332321
849.50000, 
850.00000,0.331085
850.50000, 
851.00000,0.329437
851.50000, 
852.00000,0.327454
852.50000, 
853.00000,0.325958
853.50000, 
854.00000,0.324203
854.50000, 
855.00000,0.322403
855.50000, 
856.00000,0.320541
856.50000, 
857.00000,0.319275
857.50000, 
858.00000,0.316925
858.50000, 
859.00000,0.315308
859.50000, 
860.00000,0.313812
860.50000, 
861.00000,0.311981
861.50000, 
862.00000,0.310104
862.50000, 
863.00000,0.308517
863.50000, 
864.00000,0.307022
864.50000, 
865.00000,0.304932
865.50000, 
866.00000,0.303680
866.50000, 
867.00000,0.301987
867.50000, 
868.00000,0.300278
868.50000, 
869.00000,0.298843
869.50000, 
870.00000,0.297256
870.50000, 
871.00000,0.295761
871.50000, 
872.00000,0.294022
872.50000, 
873.00000,0.292908
873.50000, 
874.00000,0.291199
874.50000, 
875.00000,0.289673
875.50000, 
876.00000,0.288513
876.50000, 
877.00000,0.286804
877.50000, 
878.00000,0.285370
878.50000, 
879.00000,0.283859
879.50000, 
880.00000,0.282654
880.50000, 
881.00000,0.280838
881.50000, 
882.00000,0.279449
882.50000, 
883.00000,0.278534
883.50000, 
884.00000,0.276764
884.50000, 
885.00000,0.275497
885.50000, 
886.00000,0.274399
886.50000, 
887.00000,0.273224
887.50000, 
888.00000,0.271698
888.50000, 
889.00000,0.270599
889.50000, 
890.00000,0.269943
890.50000, 
891.00000,0.268356
891.50000, 
892.00000,0.267349
892.50000, 
893.00000,0.266510
893.50000, 
894.00000,0.265152
894.50000, 
895.00000,0.264404
895.50000, 
896.00000,0.263428
896.50000, 
897.00000,0.262466
897.50000, 
898.00000,0.261673
898.50000, 
899.00000,0.260590
899.50000, 
900.00000,0.259842
900.50000, 
901.00000, 
901.50000, 
902.00000, 
902.50000, 
903.00000, 
903.50000, 
904.00000, 
904.50000, 
905.00000, 
905.50000, 
906.00000, 
906.50000, 
907.00000, 
907.50000, 
908.00000, 
908.50000, 
909.00000, 
909.50000, 
910.00000, 
910.50000, 
911.00000, 
911.50000, 
912.00000, 
912.50000, 
913.00000, 
913.50000, 
914.00000, 
914.50000, 
915.00000, 
915.50000, 
916.00000, 
916.50000, 
917.00000, 
917.50000, 
918.00000, 
918.50000, 
919.00000, 
919.50000, 
920.00000, 
920.50000, 
921.00000, 
921.50000, 
922.00000, 
922.50000, 
923.00000, 
923.50000, 
924.00000, 
924.50000, 
925.00000, 
925.50000, 
926.00000, 
926.50000, 
927.00000, 
927.50000, 
928.00000, 
928.50000, 
929.00000, 
929.50000, 
930.00000, 
930.50000, 
931.00000, 
931.50000, 
932.00000, 
932.50000, 
933.00000, 
933.50000, 
934.00000, 
934.50000, 
935.00000, 
935.50000, 
936.00000, 
936.50000, 
937.00000, 
937.50000, 
938.00000, 
938.50000, 
939.00000, 
939.50000, 
940.00000, 
940.50000, 
941.00000, 
941.50000, 
942.00000, 
942.50000, 
943.00000, 
943.50000, 
944.00000, 
944.50000, 
945.00000, 
945.50000, 
946.00000, 
946.50000, 
947.00000, 
947.50000, 
948.00000, 
948.50000, 
949.00000, 
949.50000, 
950.00000, 
950.50000, 
951.00000, 
951.50000, 
952.00000, 
952.50000, 
953.00000, 
953.50000, 
954.00000, 
954.50000, 
955.00000, 
955.50000, 
956.00000, 
956.50000, 
957.00000, 
957.50000, 
958.00000, 
958.50000, 
959.00000, 
959.50000, 
960.00000, 
960.50000, 
961.00000, 
961.50000, 
962.00000, 
962.50000, 
963.00000, 
963.50000, 
964.00000, 
964.50000, 
965.00000, 
965.50000, 
966.00000, 
966.50000, 
967.00000, 
967.50000, 
968.00000, 
968.50000, 
969.00000, 
969.50000, 
970.00000, 
970.50000, 
971.00000, 
971.50000, 
972.00000, 
972.50000, 
973.00000, 
973.50000, 
974.00000, 
974.50000, 
975.00000, 
975.50000, 
976.00000, 
976.50000, 
977.00000, 
977.50000, 
978.00000, 
978.50000, 
979.00000, 
979.50000, 
980.00000, 
980.50000, 
981.00000, 
981.50000, 
982.00000, 
982.50000, 
983.00000, 
983.50000, 
984.00000, 
984.50000, 
985.00000, 
985.50000, 
986.00000, 
986.50000, 
987.00000, 
987.50000, 
988.00000, 
988.50000, 
989.00000, 
989.50000, 
990.00000, 
990.50000, 
991.00000, 
991.50000, 
992.00000, 
992.50000, 
993.00000, 
993.50000, 
994.00000, 
994.50000, 
995.00000, 
995.50000, 
996.00000, 
996.50000, 
997.00000, 
997.50000, 
998.00000, 
998.50000, 
999.00000, 
999.50000, 
1000.00000, 
1000.50000, 
1001.00000, 
1001.50000, 
1002.00000, 
1002.50000, 
1003.00000, 
1003.50000, 
1004.00000, 
1004.50000, 
1005.00000, 
1005.50000, 
1006.00000, 
1006.50000, 
1007.00000, 
1007.50000, 
1008.00000, 
1008.50000, 
1009.00000, 
1009.50000, 
1010.00000, 
1010.50000, 
1011.00000, 
1011.50000, 
1012.00000, 
1012.50000, 
1013.00000, 
1013.50000, 
1014.00000, 
1014.50000, 
1015.00000, 
1015.50000, 
1016.00000, 
1016.50000, 
1017.00000, 
1017.50000, 
1018.00000, 
1018.50000, 
1019.00000, 
1019.50000, 
1020.00000, 
1020.50000, 
1021.00000, 
1021.50000, 
1022.00000, 
1022.50000, 
1023.00000, 
1023.50000, 
1024.00000, 
1024.50000, 
1025.00000, 
1025.50000, 
1026.00000, 
1026.50000, 
1027.00000, 
1027.50000, 
1028.00000, 
1028.50000, 
1029.00000, 
1029.50000, 
1030.00000, 
1030.50000, 
1031.00000, 
1031.50000, 
1032.00000, 
1032.50000, 
1033.00000, 
1033.50000, 
1034.00000, 
1034.50000, 
1035.00000, 
1035.50000, 
1036.00000, 
1036.50000, 
1037.00000, 
1037.50000, 
1038.00000, 
1038.50000, 
1039.00000, 
1039.50000, 
1040.00000, 
1040.50000, 
1041.00000, 
1041.50000, 
1042.00000, 
1042.50000, 
1043.00000, 
1043.50000, 
1044.00000, 
1044.50000, 
1045.00000, 
1045.50000, 
1046.00000, 
1046.50000, 
1047.00000, 
1047.50000, 
1048.00000, 
1048.50000, 
1049.00000, 
1049.50000, 
1050.00000, 
1050.50000, 
1051.00000, 
1051.50000, 
1052.00000, 
1052.50000, 
1053.00000, 
1053.50000, 
1054.00000, 
1054.50000, 
1055.00000, 
1055.50000, 
1056.00000, 
1056.50000, 
1057.00000, 
1057.50000, 
1058.00000, 
1058.50000, 
1059.00000, 
1059.50000, 
1060.00000, 
1060.50000, 
1061.00000, 
1061.50000, 
1062.00000, 
1062.50000, 
1063.00000, 
1063.50000, 
1064.00000, 
1064.50000, 
1065.00000, 
1065.50000, 
1066.00000, 
1066.50000, 
1067.00000, 
1067.50000, 
1068.00000, 
1068.50000, 
1069.00000, 
1069.50000, 
1070.00000, 
1070.50000, 
1071.00000, 
1071.50000, 
1072.00000, 
1072.50000, 
1073.00000, 
1073.50000, 
1074.00000, 
1074.50000, 
1075.00000, 
1075.50000, 
1076.00000, 
1076.50000, 
1077.00000, 
1077.50000, 
1078.00000, 
1078.50000, 
1079.00000, 
1079.50000, 
1080.00000, 
1080.50000, 
1081.00000, 
1081.50000, 
1082.00000, 
1082.50000, 
1083.00000, 
1083.50000, 
1084.00000, 
1084.50000, 
1085.00000, 
1085.50000, 
1086.00000, 
1086.50000, 
1087.00000, 
1087.50000, 
1088.00000, 
1088.50000, 
1089.00000, 
1089.50000, 
1090.00000, 
1090.50000, 
1091.00000, 
1091.50000, 
1092.00000, 
1092.50000, 
1093.00000, 
1093.50000, 
1094.00000, 
1094.50000, 
1095.00000, 
1095.50000, 
1096.00000, 
1096.50000, 
1097.00000, 
1097.50000, 
1098.00000, 
1098.50000, 
1099.00000, 
1099.50000, 
1100.00000, 
