"0% H - RawData"
"Wavelength nm.","Abs."
300.00000,3.982040
300.50000, 
301.00000,3.890411
301.50000, 
302.00000,3.915222
302.50000, 
303.00000,3.956543
303.50000, 
304.00000,3.908829
304.50000, 
305.00000,3.931122
305.50000, 
306.00000,3.968033
306.50000, 
307.00000,3.968140
307.50000, 
308.00000,3.982513
308.50000, 
309.00000,3.953720
309.50000, 
310.00000,3.975250
310.50000, 
311.00000,3.980347
311.50000, 
312.00000,3.797058
312.50000, 
313.00000,3.900482
313.50000, 
314.00000,3.910858
314.50000, 
315.00000,3.891281
315.50000, 
316.00000,3.931610
316.50000, 
317.00000,3.866531
317.50000, 
318.00000,3.877487
318.50000, 
319.00000,3.858398
319.50000, 
320.00000,3.881088
320.50000, 
321.00000,3.973404
321.50000, 
322.00000,3.833679
322.50000, 
323.00000,3.867416
323.50000, 
324.00000,3.822800
324.50000, 
325.00000,3.815201
325.50000, 
326.00000,3.983139
326.50000, 
327.00000,3.932953
327.50000, 
328.00000,3.664886
328.50000, 
329.00000,3.808167
329.50000, 
330.00000,3.896622
330.50000, 
331.00000,3.915009
331.50000, 
332.00000,3.653839
332.50000, 
333.00000,3.867874
333.50000, 
334.00000,3.729172
334.50000, 
335.00000,3.803101
335.50000, 
336.00000,3.887680
336.50000, 
337.00000,3.912155
337.50000, 
338.00000,3.900787
338.50000, 
339.00000,3.858124
339.50000, 
340.00000,3.599991
340.50000, 
341.00000,3.738129
341.50000, 
342.00000,3.882248
342.50000, 
343.00000,3.952301
343.50000, 
344.00000,3.898956
344.50000, 
345.00000,3.885620
345.50000, 
346.00000,3.863602
346.50000, 
347.00000,3.939072
347.50000, 
348.00000,3.937531
348.50000, 
349.00000,3.736313
349.50000, 
350.00000,3.939987
350.50000, 
351.00000,3.930344
351.50000, 
352.00000,3.957748
352.50000, 
353.00000,3.746872
353.50000, 
354.00000,3.691620
354.50000, 
355.00000,3.863068
355.50000, 
356.00000,3.687027
356.50000, 
357.00000,3.935791
357.50000, 
358.00000,3.811646
358.50000, 
359.00000,3.675690
359.50000, 
360.00000,3.815445
360.50000, 
361.00000,3.939713
361.50000, 
362.00000,3.901474
362.50000, 
363.00000,3.833908
363.50000, 
364.00000,3.776138
364.50000, 
365.00000,3.796265
365.50000, 
366.00000,3.768005
366.50000, 
367.00000,3.852188
367.50000, 
368.00000,3.823074
368.50000, 
369.00000,3.867569
369.50000, 
370.00000,3.796082
370.50000, 
371.00000,3.745178
371.50000, 
372.00000,3.941452
372.50000, 
373.00000,3.942963
373.50000, 
374.00000,3.936417
374.50000, 
375.00000,3.903244
375.50000, 
376.00000,3.649887
376.50000, 
377.00000,3.736099
377.50000, 
378.00000,3.783432
378.50000, 
379.00000,3.853546
379.50000, 
380.00000,3.916702
380.50000, 
381.00000,3.916855
381.50000, 
382.00000,3.706787
382.50000, 
383.00000,3.392090
383.50000, 
384.00000,3.189133
384.50000, 
385.00000,3.000977
385.50000, 
386.00000,2.823700
386.50000, 
387.00000,2.668091
387.50000, 
388.00000,2.476074
388.50000, 
389.00000,2.329102
389.50000, 
390.00000,2.197388
390.50000, 
391.00000,2.079071
391.50000, 
392.00000,1.966324
392.50000, 
393.00000,1.871536
393.50000, 
394.00000,1.779907
394.50000, 
395.00000,1.700821
395.50000, 
396.00000,1.628693
396.50000, 
397.00000,1.564636
397.50000, 
398.00000,1.511444
398.50000, 
399.00000,1.463531
399.50000, 
400.00000,1.421326
400.50000, 
401.00000,1.386353
401.50000, 
402.00000,1.357391
402.50000, 
403.00000,1.334061
403.50000, 
404.00000,1.313843
404.50000, 
405.00000,1.299500
405.50000, 
406.00000,1.286346
406.50000, 
407.00000,1.276184
407.50000, 
408.00000,1.268814
408.50000, 
409.00000,1.262543
409.50000, 
410.00000,1.257309
410.50000, 
411.00000,1.253204
411.50000, 
412.00000,1.250183
412.50000, 
413.00000,1.247589
413.50000, 
414.00000,1.246094
414.50000, 
415.00000,1.244904
415.50000, 
416.00000,1.243225
416.50000, 
417.00000,1.241730
417.50000, 
418.00000,1.241547
418.50000, 
419.00000,1.241165
419.50000, 
420.00000,1.241089
420.50000, 
421.00000,1.241638
421.50000, 
422.00000,1.242111
422.50000, 
423.00000,1.242767
423.50000, 
424.00000,1.243881
424.50000, 
425.00000,1.245255
425.50000, 
426.00000,1.246826
426.50000, 
427.00000,1.248627
427.50000, 
428.00000,1.251190
428.50000, 
429.00000,1.254044
429.50000, 
430.00000,1.257050
430.50000, 
431.00000,1.260330
431.50000, 
432.00000,1.263611
432.50000, 
433.00000,1.266815
433.50000, 
434.00000,1.269974
434.50000, 
435.00000,1.273346
435.50000, 
436.00000,1.276352
436.50000, 
437.00000,1.279236
437.50000, 
438.00000,1.281998
438.50000, 
439.00000,1.284668
439.50000, 
440.00000,1.286835
440.50000, 
441.00000,1.290100
441.50000, 
442.00000,1.293015
442.50000, 
443.00000,1.295670
443.50000, 
444.00000,1.298996
444.50000, 
445.00000,1.302368
445.50000, 
446.00000,1.305237
446.50000, 
447.00000,1.308868
447.50000, 
448.00000,1.312790
448.50000, 
449.00000,1.316559
449.50000, 
450.00000,1.319901
450.50000, 
451.00000,1.323898
451.50000, 
452.00000,1.328430
452.50000, 
453.00000,1.332321
453.50000, 
454.00000,1.337067
454.50000, 
455.00000,1.341309
455.50000, 
456.00000,1.345856
456.50000, 
457.00000,1.351074
457.50000, 
458.00000,1.356140
458.50000, 
459.00000,1.360977
459.50000, 
460.00000,1.366089
460.50000, 
461.00000,1.371384
461.50000, 
462.00000,1.376633
462.50000, 
463.00000,1.382126
463.50000, 
464.00000,1.388123
464.50000, 
465.00000,1.393707
465.50000, 
466.00000,1.400040
466.50000, 
467.00000,1.406265
467.50000, 
468.00000,1.412369
468.50000, 
469.00000,1.419144
469.50000, 
470.00000,1.426117
470.50000, 
471.00000,1.433746
471.50000, 
472.00000,1.442154
472.50000, 
473.00000,1.451736
473.50000, 
474.00000,1.460464
474.50000, 
475.00000,1.465332
475.50000, 
476.00000,1.469116
476.50000, 
477.00000,1.472916
477.50000, 
478.00000,1.475830
478.50000, 
479.00000,1.478226
479.50000, 
480.00000,1.479752
480.50000, 
481.00000,1.480499
481.50000, 
482.00000,1.479797
482.50000, 
483.00000,1.478470
483.50000, 
484.00000,1.476654
484.50000, 
485.00000,1.473572
485.50000, 
486.00000,1.470261
486.50000, 
487.00000,1.466690
487.50000, 
488.00000,1.463699
488.50000, 
489.00000,1.461273
489.50000, 
490.00000,1.459915
490.50000, 
491.00000,1.459320
491.50000, 
492.00000,1.460297
492.50000, 
493.00000,1.462357
493.50000, 
494.00000,1.465744
494.50000, 
495.00000,1.470367
495.50000, 
496.00000,1.475403
496.50000, 
497.00000,1.481552
497.50000, 
498.00000,1.488480
498.50000, 
499.00000,1.495438
499.50000, 
500.00000,1.502914
500.50000, 
501.00000,1.510651
501.50000, 
502.00000,1.518860
502.50000, 
503.00000,1.526962
503.50000, 
504.00000,1.535004
504.50000, 
505.00000,1.542984
505.50000, 
506.00000,1.550720
506.50000, 
507.00000,1.558182
507.50000, 
508.00000,1.565552
508.50000, 
509.00000,1.572220
509.50000, 
510.00000,1.579300
510.50000, 
511.00000,1.584885
511.50000, 
512.00000,1.590469
512.50000, 
513.00000,1.595795
513.50000, 
514.00000,1.599884
514.50000, 
515.00000,1.603622
515.50000, 
516.00000,1.607330
516.50000, 
517.00000,1.610291
517.50000, 
518.00000,1.612473
518.50000, 
519.00000,1.614029
519.50000, 
520.00000,1.615097
520.50000, 
521.00000,1.615692
521.50000, 
522.00000,1.615845
522.50000, 
523.00000,1.615463
523.50000, 
524.00000,1.614899
524.50000, 
525.00000,1.613785
525.50000, 
526.00000,1.612335
526.50000, 
527.00000,1.610733
527.50000, 
528.00000,1.608871
528.50000, 
529.00000,1.606689
529.50000, 
530.00000,1.604736
530.50000, 
531.00000,1.602768
531.50000, 
532.00000,1.601013
532.50000, 
533.00000,1.599319
533.50000, 
534.00000,1.597794
534.50000, 
535.00000,1.596344
535.50000, 
536.00000,1.595596
536.50000, 
537.00000,1.595398
537.50000, 
538.00000,1.595337
538.50000, 
539.00000,1.595367
539.50000, 
540.00000,1.595779
540.50000, 
541.00000,1.596237
541.50000, 
542.00000,1.597412
542.50000, 
543.00000,1.598907
543.50000, 
544.00000,1.600189
544.50000, 
545.00000,1.602066
545.50000, 
546.00000,1.603683
546.50000, 
547.00000,1.605545
547.50000, 
548.00000,1.606781
548.50000, 
549.00000,1.608597
549.50000, 
550.00000,1.609756
550.50000, 
551.00000,1.610962
551.50000, 
552.00000,1.611145
552.50000, 
553.00000,1.611084
553.50000, 
554.00000,1.610184
554.50000, 
555.00000,1.608978
555.50000, 
556.00000,1.606583
556.50000, 
557.00000,1.603348
557.50000, 
558.00000,1.599091
558.50000, 
559.00000,1.594223
559.50000, 
560.00000,1.588394
560.50000, 
561.00000,1.581421
561.50000, 
562.00000,1.573898
562.50000, 
563.00000,1.565781
563.50000, 
564.00000,1.556290
564.50000, 
565.00000,1.545975
565.50000, 
566.00000,1.535126
566.50000, 
567.00000,1.524216
567.50000, 
568.00000,1.512604
568.50000, 
569.00000,1.500305
569.50000, 
570.00000,1.487701
570.50000, 
571.00000,1.474747
571.50000, 
572.00000,1.461823
572.50000, 
573.00000,1.448990
573.50000, 
574.00000,1.435974
574.50000, 
575.00000,1.422363
575.50000, 
576.00000,1.409210
576.50000, 
577.00000,1.396713
577.50000, 
578.00000,1.384399
578.50000, 
579.00000,1.372894
579.50000, 
580.00000,1.362335
580.50000, 
581.00000,1.352631
581.50000, 
582.00000,1.343658
582.50000, 
583.00000,1.335770
583.50000, 
584.00000,1.328217
584.50000, 
585.00000,1.321686
585.50000, 
586.00000,1.316193
586.50000, 
587.00000,1.311691
587.50000, 
588.00000,1.308014
588.50000, 
589.00000,1.305267
589.50000, 
590.00000,1.302994
590.50000, 
591.00000,1.301514
591.50000, 
592.00000,1.300720
592.50000, 
593.00000,1.300446
593.50000, 
594.00000,1.300552
594.50000, 
595.00000,1.301010
595.50000, 
596.00000,1.301712
596.50000, 
597.00000,1.302551
597.50000, 
598.00000,1.303360
598.50000, 
599.00000,1.304016
599.50000, 
600.00000,1.304398
600.50000, 
601.00000,1.304306
601.50000, 
602.00000,1.303726
602.50000, 
603.00000,1.302261
603.50000, 
604.00000,1.299698
604.50000, 
605.00000,1.296265
605.50000, 
606.00000,1.291748
606.50000, 
607.00000,1.285965
607.50000, 
608.00000,1.279099
608.50000, 
609.00000,1.270630
609.50000, 
610.00000,1.260986
610.50000, 
611.00000,1.250397
611.50000, 
612.00000,1.238174
612.50000, 
613.00000,1.225037
613.50000, 
614.00000,1.210876
614.50000, 
615.00000,1.195419
615.50000, 
616.00000,1.179123
616.50000, 
617.00000,1.161972
617.50000, 
618.00000,1.143600
618.50000, 
619.00000,1.124969
619.50000, 
620.00000,1.106171
620.50000, 
621.00000,1.086456
621.50000, 
622.00000,1.066406
622.50000, 
623.00000,1.045654
623.50000, 
624.00000,1.024521
624.50000, 
625.00000,1.003235
625.50000, 
626.00000,0.982727
626.50000, 
627.00000,0.962555
627.50000, 
628.00000,0.943115
628.50000, 
629.00000,0.924347
629.50000, 
630.00000,0.906448
630.50000, 
631.00000,0.889755
631.50000, 
632.00000,0.874222
632.50000, 
633.00000,0.860886
633.50000, 
634.00000,0.850616
634.50000, 
635.00000,0.835373
635.50000, 
636.00000,0.814392
636.50000, 
637.00000,0.792114
637.50000, 
638.00000,0.769669
638.50000, 
639.00000,0.745972
639.50000, 
640.00000,0.723038
640.50000, 
641.00000,0.701477
641.50000, 
642.00000,0.680984
642.50000, 
643.00000,0.662888
643.50000, 
644.00000,0.647308
644.50000, 
645.00000,0.634659
645.50000, 
646.00000,0.624542
646.50000, 
647.00000,0.616959
647.50000, 
648.00000,0.611465
648.50000, 
649.00000,0.607712
649.50000, 
650.00000,0.605392
650.50000, 
651.00000,0.604019
651.50000, 
652.00000,0.603241
652.50000, 
653.00000,0.602783
653.50000, 
654.00000,0.602707
654.50000, 
655.00000,0.602768
655.50000, 
656.00000,0.602859
656.50000, 
657.00000,0.603088
657.50000, 
658.00000,0.603256
658.50000, 
659.00000,0.603302
659.50000, 
660.00000,0.603333
660.50000, 
661.00000,0.603333
661.50000, 
662.00000,0.603165
662.50000, 
663.00000,0.603043
663.50000, 
664.00000,0.602875
664.50000, 
665.00000,0.602722
665.50000, 
666.00000,0.602310
666.50000, 
667.00000,0.602097
667.50000, 
668.00000,0.601578
668.50000, 
669.00000,0.601242
669.50000, 
670.00000,0.600693
670.50000, 
671.00000,0.600327
671.50000, 
672.00000,0.599533
672.50000, 
673.00000,0.599091
673.50000, 
674.00000,0.598343
674.50000, 
675.00000,0.597794
675.50000, 
676.00000,0.597031
676.50000, 
677.00000,0.596344
677.50000, 
678.00000,0.595367
678.50000, 
679.00000,0.594681
679.50000, 
680.00000,0.593857
680.50000, 
681.00000,0.593002
681.50000, 
682.00000,0.591949
682.50000, 
683.00000,0.591202
683.50000, 
684.00000,0.590286
684.50000, 
685.00000,0.589523
685.50000, 
686.00000,0.588501
686.50000, 
687.00000,0.587708
687.50000, 
688.00000,0.586670
688.50000, 
689.00000,0.585892
689.50000, 
690.00000,0.584702
690.50000, 
691.00000,0.583786
691.50000, 
692.00000,0.582626
692.50000, 
693.00000,0.581772
693.50000, 
694.00000,0.580612
694.50000, 
695.00000,0.579712
695.50000, 
696.00000,0.578522
696.50000, 
697.00000,0.577499
697.50000, 
698.00000,0.576141
698.50000, 
699.00000,0.575165
699.50000, 
700.00000,0.573959
700.50000, 
701.00000,0.572968
701.50000, 
702.00000,0.571716
702.50000, 
703.00000,0.570648
703.50000, 
704.00000,0.569534
704.50000, 
705.00000,0.568298
705.50000, 
706.00000,0.567184
706.50000, 
707.00000,0.565811
707.50000, 
708.00000,0.564774
708.50000, 
709.00000,0.563309
709.50000, 
710.00000,0.562317
710.50000, 
711.00000,0.560669
711.50000, 
712.00000,0.559509
712.50000, 
713.00000,0.558136
713.50000, 
714.00000,0.556717
714.50000, 
715.00000,0.555328
715.50000, 
716.00000,0.553711
716.50000, 
717.00000,0.552567
717.50000, 
718.00000,0.550781
718.50000, 
719.00000,0.549377
719.50000, 
720.00000,0.547714
720.50000, 
721.00000,0.546539
721.50000, 
722.00000,0.544876
722.50000, 
723.00000,0.543503
723.50000, 
724.00000,0.541916
724.50000, 
725.00000,0.540329
725.50000, 
726.00000,0.539185
726.50000, 
727.00000,0.537460
727.50000, 
728.00000,0.536255
728.50000, 
729.00000,0.534576
729.50000, 
730.00000,0.533417
730.50000, 
731.00000,0.531937
731.50000, 
732.00000,0.530579
732.50000, 
733.00000,0.529358
733.50000, 
734.00000,0.527725
734.50000, 
735.00000,0.526718
735.50000, 
736.00000,0.525162
736.50000, 
737.00000,0.523972
737.50000, 
738.00000,0.522781
738.50000, 
739.00000,0.521362
739.50000, 
740.00000,0.520386
740.50000, 
741.00000,0.518692
741.50000, 
742.00000,0.517517
742.50000, 
743.00000,0.516068
743.50000, 
744.00000,0.514679
744.50000, 
745.00000,0.513519
745.50000, 
746.00000,0.511917
746.50000, 
747.00000,0.510910
747.50000, 
748.00000,0.509247
748.50000, 
749.00000,0.508179
749.50000, 
750.00000,0.506973
750.50000, 
751.00000,0.505508
751.50000, 
752.00000,0.504593
752.50000, 
753.00000,0.503113
753.50000, 
754.00000,0.502060
754.50000, 
755.00000,0.500854
755.50000, 
756.00000,0.499313
756.50000, 
757.00000,0.498611
757.50000, 
758.00000,0.497009
758.50000, 
759.00000,0.496063
759.50000, 
760.00000,0.495056
760.50000, 
761.00000,0.493469
761.50000, 
762.00000,0.492737
762.50000, 
763.00000,0.491302
763.50000, 
764.00000,0.490234
764.50000, 
765.00000,0.489105
765.50000, 
766.00000,0.487640
766.50000, 
767.00000,0.486847
767.50000, 
768.00000,0.485352
768.50000, 
769.00000,0.484406
769.50000, 
770.00000,0.483353
770.50000, 
771.00000,0.481857
771.50000, 
772.00000,0.481094
772.50000, 
773.00000,0.479752
773.50000, 
774.00000,0.478546
774.50000, 
775.00000,0.477859
775.50000, 
776.00000,0.476303
776.50000, 
777.00000,0.475632
777.50000, 
778.00000,0.474426
778.50000, 
779.00000,0.473083
779.50000, 
780.00000,0.472473
780.50000, 
781.00000,0.471069
781.50000, 
782.00000,0.470078
782.50000, 
783.00000,0.469330
783.50000, 
784.00000,0.467865
784.50000, 
785.00000,0.467117
785.50000, 
786.00000,0.466141
786.50000, 
787.00000,0.464661
787.50000, 
788.00000,0.464096
788.50000, 
789.00000,0.462662
789.50000, 
790.00000,0.461700
790.50000, 
791.00000,0.460800
791.50000, 
792.00000,0.459335
792.50000, 
793.00000,0.458466
793.50000, 
794.00000,0.457474
794.50000, 
795.00000,0.456024
795.50000, 
796.00000,0.455521
796.50000, 
797.00000,0.454147
797.50000, 
798.00000,0.452988
798.50000, 
799.00000,0.452225
799.50000, 
800.00000,0.450790
800.50000, 
801.00000,0.449677
801.50000, 
802.00000,0.448914
802.50000, 
803.00000,0.447250
803.50000, 
804.00000,0.446457
804.50000, 
805.00000,0.445404
805.50000, 
806.00000,0.444061
806.50000, 
807.00000,0.443054
807.50000, 
808.00000,0.442169
808.50000, 
809.00000,0.440262
809.50000, 
810.00000,0.439438
810.50000, 
811.00000,0.437958
811.50000, 
812.00000,0.436493
812.50000, 
813.00000,0.435486
813.50000, 
814.00000,0.434158
814.50000, 
815.00000,0.432434
815.50000, 
816.00000,0.431549
816.50000, 
817.00000,0.429565
817.50000, 
818.00000,0.428253
818.50000, 
819.00000,0.427063
819.50000, 
820.00000,0.425430
820.50000, 
821.00000,0.423813
821.50000, 
822.00000,0.422913
822.50000, 
823.00000,0.420898
823.50000, 
824.00000,0.419388
824.50000, 
825.00000,0.418289
825.50000, 
826.00000,0.416367
826.50000, 
827.00000,0.414795
827.50000, 
828.00000,0.413452
828.50000, 
829.00000,0.411652
829.50000, 
830.00000,0.409851
830.50000, 
831.00000,0.408752
831.50000, 
832.00000,0.406509
832.50000, 
833.00000,0.404861
833.50000, 
834.00000,0.403412
834.50000, 
835.00000,0.401535
835.50000, 
836.00000,0.399414
836.50000, 
837.00000,0.398087
837.50000, 
838.00000,0.395828
838.50000, 
839.00000,0.393921
839.50000, 
840.00000,0.392578
840.50000, 
841.00000,0.390457
841.50000, 
842.00000,0.388550
842.50000, 
843.00000,0.386948
843.50000, 
844.00000,0.385147
844.50000, 
845.00000,0.382767
845.50000, 
846.00000,0.381577
846.50000, 
847.00000,0.379562
847.50000, 
848.00000,0.377502
848.50000, 
849.00000,0.375946
849.50000, 
850.00000,0.374161
850.50000, 
851.00000,0.372055
851.50000, 
852.00000,0.370255
852.50000, 
853.00000,0.369003
853.50000, 
854.00000,0.366440
854.50000, 
855.00000,0.364655
855.50000, 
856.00000,0.363007
856.50000, 
857.00000,0.360931
857.50000, 
858.00000,0.358887
858.50000, 
859.00000,0.357376
859.50000, 
860.00000,0.355484
860.50000, 
861.00000,0.353317
861.50000, 
862.00000,0.352051
862.50000, 
863.00000,0.349884
863.50000, 
864.00000,0.347961
864.50000, 
865.00000,0.346420
865.50000, 
866.00000,0.344833
866.50000, 
867.00000,0.342850
867.50000, 
868.00000,0.341232
868.50000, 
869.00000,0.340134
869.50000, 
870.00000,0.337891
870.50000, 
871.00000,0.336319
871.50000, 
872.00000,0.335114
872.50000, 
873.00000,0.333405
873.50000, 
874.00000,0.331589
874.50000, 
875.00000,0.330200
875.50000, 
876.00000,0.329117
876.50000, 
877.00000,0.327011
877.50000, 
878.00000,0.325714
878.50000, 
879.00000,0.324524
879.50000, 
880.00000,0.322647
880.50000, 
881.00000,0.321075
881.50000, 
882.00000,0.319763
882.50000, 
883.00000,0.318573
883.50000, 
884.00000,0.316833
884.50000, 
885.00000,0.315659
885.50000, 
886.00000,0.314713
886.50000, 
887.00000,0.313065
887.50000, 
888.00000,0.311874
888.50000, 
889.00000,0.310806
889.50000, 
890.00000,0.309723
890.50000, 
891.00000,0.308258
891.50000, 
892.00000,0.307220
892.50000, 
893.00000,0.306641
893.50000, 
894.00000,0.304932
894.50000, 
895.00000,0.303986
895.50000, 
896.00000,0.303513
896.50000, 
897.00000,0.302185
897.50000, 
898.00000,0.301254
898.50000, 
899.00000,0.300446
899.50000, 
900.00000,0.299423
900.50000, 
901.00000, 
901.50000, 
902.00000, 
902.50000, 
903.00000, 
903.50000, 
904.00000, 
904.50000, 
905.00000, 
905.50000, 
906.00000, 
906.50000, 
907.00000, 
907.50000, 
908.00000, 
908.50000, 
909.00000, 
909.50000, 
910.00000, 
910.50000, 
911.00000, 
911.50000, 
912.00000, 
912.50000, 
913.00000, 
913.50000, 
914.00000, 
914.50000, 
915.00000, 
915.50000, 
916.00000, 
916.50000, 
917.00000, 
917.50000, 
918.00000, 
918.50000, 
919.00000, 
919.50000, 
920.00000, 
920.50000, 
921.00000, 
921.50000, 
922.00000, 
922.50000, 
923.00000, 
923.50000, 
924.00000, 
924.50000, 
925.00000, 
925.50000, 
926.00000, 
926.50000, 
927.00000, 
927.50000, 
928.00000, 
928.50000, 
929.00000, 
929.50000, 
930.00000, 
930.50000, 
931.00000, 
931.50000, 
932.00000, 
932.50000, 
933.00000, 
933.50000, 
934.00000, 
934.50000, 
935.00000, 
935.50000, 
936.00000, 
936.50000, 
937.00000, 
937.50000, 
938.00000, 
938.50000, 
939.00000, 
939.50000, 
940.00000, 
940.50000, 
941.00000, 
941.50000, 
942.00000, 
942.50000, 
943.00000, 
943.50000, 
944.00000, 
944.50000, 
945.00000, 
945.50000, 
946.00000, 
946.50000, 
947.00000, 
947.50000, 
948.00000, 
948.50000, 
949.00000, 
949.50000, 
950.00000, 
950.50000, 
951.00000, 
951.50000, 
952.00000, 
952.50000, 
953.00000, 
953.50000, 
954.00000, 
954.50000, 
955.00000, 
955.50000, 
956.00000, 
956.50000, 
957.00000, 
957.50000, 
958.00000, 
958.50000, 
959.00000, 
959.50000, 
960.00000, 
960.50000, 
961.00000, 
961.50000, 
962.00000, 
962.50000, 
963.00000, 
963.50000, 
964.00000, 
964.50000, 
965.00000, 
965.50000, 
966.00000, 
966.50000, 
967.00000, 
967.50000, 
968.00000, 
968.50000, 
969.00000, 
969.50000, 
970.00000, 
970.50000, 
971.00000, 
971.50000, 
972.00000, 
972.50000, 
973.00000, 
973.50000, 
974.00000, 
974.50000, 
975.00000, 
975.50000, 
976.00000, 
976.50000, 
977.00000, 
977.50000, 
978.00000, 
978.50000, 
979.00000, 
979.50000, 
980.00000, 
980.50000, 
981.00000, 
981.50000, 
982.00000, 
982.50000, 
983.00000, 
983.50000, 
984.00000, 
984.50000, 
985.00000, 
985.50000, 
986.00000, 
986.50000, 
987.00000, 
987.50000, 
988.00000, 
988.50000, 
989.00000, 
989.50000, 
990.00000, 
990.50000, 
991.00000, 
991.50000, 
992.00000, 
992.50000, 
993.00000, 
993.50000, 
994.00000, 
994.50000, 
995.00000, 
995.50000, 
996.00000, 
996.50000, 
997.00000, 
997.50000, 
998.00000, 
998.50000, 
999.00000, 
999.50000, 
1000.00000, 
1000.50000, 
1001.00000, 
1001.50000, 
1002.00000, 
1002.50000, 
1003.00000, 
1003.50000, 
1004.00000, 
1004.50000, 
1005.00000, 
1005.50000, 
1006.00000, 
1006.50000, 
1007.00000, 
1007.50000, 
1008.00000, 
1008.50000, 
1009.00000, 
1009.50000, 
1010.00000, 
1010.50000, 
1011.00000, 
1011.50000, 
1012.00000, 
1012.50000, 
1013.00000, 
1013.50000, 
1014.00000, 
1014.50000, 
1015.00000, 
1015.50000, 
1016.00000, 
1016.50000, 
1017.00000, 
1017.50000, 
1018.00000, 
1018.50000, 
1019.00000, 
1019.50000, 
1020.00000, 
1020.50000, 
1021.00000, 
1021.50000, 
1022.00000, 
1022.50000, 
1023.00000, 
1023.50000, 
1024.00000, 
1024.50000, 
1025.00000, 
1025.50000, 
1026.00000, 
1026.50000, 
1027.00000, 
1027.50000, 
1028.00000, 
1028.50000, 
1029.00000, 
1029.50000, 
1030.00000, 
1030.50000, 
1031.00000, 
1031.50000, 
1032.00000, 
1032.50000, 
1033.00000, 
1033.50000, 
1034.00000, 
1034.50000, 
1035.00000, 
1035.50000, 
1036.00000, 
1036.50000, 
1037.00000, 
1037.50000, 
1038.00000, 
1038.50000, 
1039.00000, 
1039.50000, 
1040.00000, 
1040.50000, 
1041.00000, 
1041.50000, 
1042.00000, 
1042.50000, 
1043.00000, 
1043.50000, 
1044.00000, 
1044.50000, 
1045.00000, 
1045.50000, 
1046.00000, 
1046.50000, 
1047.00000, 
1047.50000, 
1048.00000, 
1048.50000, 
1049.00000, 
1049.50000, 
1050.00000, 
1050.50000, 
1051.00000, 
1051.50000, 
1052.00000, 
1052.50000, 
1053.00000, 
1053.50000, 
1054.00000, 
1054.50000, 
1055.00000, 
1055.50000, 
1056.00000, 
1056.50000, 
1057.00000, 
1057.50000, 
1058.00000, 
1058.50000, 
1059.00000, 
1059.50000, 
1060.00000, 
1060.50000, 
1061.00000, 
1061.50000, 
1062.00000, 
1062.50000, 
1063.00000, 
1063.50000, 
1064.00000, 
1064.50000, 
1065.00000, 
1065.50000, 
1066.00000, 
1066.50000, 
1067.00000, 
1067.50000, 
1068.00000, 
1068.50000, 
1069.00000, 
1069.50000, 
1070.00000, 
1070.50000, 
1071.00000, 
1071.50000, 
1072.00000, 
1072.50000, 
1073.00000, 
1073.50000, 
1074.00000, 
1074.50000, 
1075.00000, 
1075.50000, 
1076.00000, 
1076.50000, 
1077.00000, 
1077.50000, 
1078.00000, 
1078.50000, 
1079.00000, 
1079.50000, 
1080.00000, 
1080.50000, 
1081.00000, 
1081.50000, 
1082.00000, 
1082.50000, 
1083.00000, 
1083.50000, 
1084.00000, 
1084.50000, 
1085.00000, 
1085.50000, 
1086.00000, 
1086.50000, 
1087.00000, 
1087.50000, 
1088.00000, 
1088.50000, 
1089.00000, 
1089.50000, 
1090.00000, 
1090.50000, 
1091.00000, 
1091.50000, 
1092.00000, 
1092.50000, 
1093.00000, 
1093.50000, 
1094.00000, 
1094.50000, 
1095.00000, 
1095.50000, 
1096.00000, 
1096.50000, 
1097.00000, 
1097.50000, 
1098.00000, 
1098.50000, 
1099.00000, 
1099.50000, 
1100.00000, 
