"0% - RawData"
"Wavelength nm.","Abs."
300.00000,1.345108
300.50000, 
301.00000,1.331223
301.50000, 
302.00000,1.313690
302.50000, 
303.00000,1.299316
303.50000, 
304.00000,1.283600
304.50000, 
305.00000,1.270081
305.50000, 
306.00000,1.254868
306.50000, 
307.00000,1.242630
307.50000, 
308.00000,1.230911
308.50000, 
309.00000,1.219055
309.50000, 
310.00000,1.209564
310.50000, 
311.00000,1.200974
311.50000, 
312.00000,1.192810
312.50000, 
313.00000,1.184433
313.50000, 
314.00000,1.180313
314.50000, 
315.00000,1.174698
315.50000, 
316.00000,1.171005
316.50000, 
317.00000,1.168945
317.50000, 
318.00000,1.167908
318.50000, 
319.00000,1.166565
319.50000, 
320.00000,1.170059
320.50000, 
321.00000,1.172363
321.50000, 
322.00000,1.176163
322.50000, 
323.00000,1.181381
323.50000, 
324.00000,1.188004
324.50000, 
325.00000,1.194077
325.50000, 
326.00000,1.201736
326.50000, 
327.00000,1.209198
327.50000, 
328.00000,1.217422
328.50000, 
329.00000,1.225525
329.50000, 
330.00000,1.231384
330.50000, 
331.00000,1.237640
331.50000, 
332.00000,1.240921
332.50000, 
333.00000,1.244995
333.50000, 
334.00000,1.244888
334.50000, 
335.00000,1.242920
335.50000, 
336.00000,1.239578
336.50000, 
337.00000,1.233795
337.50000, 
338.00000,1.223373
338.50000, 
339.00000,1.214371
339.50000, 
340.00000,1.201935
340.50000, 
341.00000,1.189438
341.50000, 
342.00000,1.178329
342.50000, 
343.00000,1.163559
343.50000, 
344.00000,1.147720
344.50000, 
345.00000,1.133804
345.50000, 
346.00000,1.119766
346.50000, 
347.00000,1.105621
347.50000, 
348.00000,1.090042
348.50000, 
349.00000,1.076904
349.50000, 
350.00000,1.061371
350.50000, 
351.00000,1.048904
351.50000, 
352.00000,1.034637
352.50000, 
353.00000,1.021240
353.50000, 
354.00000,1.007828
354.50000, 
355.00000,0.995636
355.50000, 
356.00000,0.984085
356.50000, 
357.00000,0.972183
357.50000, 
358.00000,0.962357
358.50000, 
359.00000,0.952118
359.50000, 
360.00000,0.944366
360.50000, 
361.00000,0.935516
361.50000, 
362.00000,0.926773
362.50000, 
363.00000,0.919312
363.50000, 
364.00000,0.912827
364.50000, 
365.00000,0.906311
365.50000, 
366.00000,0.900665
366.50000, 
367.00000,0.893600
367.50000, 
368.00000,0.888184
368.50000, 
369.00000,0.881531
369.50000, 
370.00000,0.876831
370.50000, 
371.00000,0.870407
371.50000, 
372.00000,0.865494
372.50000, 
373.00000,0.860367
373.50000, 
374.00000,0.855667
374.50000, 
375.00000,0.850784
375.50000, 
376.00000,0.846298
376.50000, 
377.00000,0.841644
377.50000, 
378.00000,0.836884
378.50000, 
379.00000,0.833664
379.50000, 
380.00000,0.830734
380.50000, 
381.00000,0.827637
381.50000, 
382.00000,0.824387
382.50000, 
383.00000,0.821442
383.50000, 
384.00000,0.819031
384.50000, 
385.00000,0.816879
385.50000, 
386.00000,0.814529
386.50000, 
387.00000,0.813187
387.50000, 
388.00000,0.811340
388.50000, 
389.00000,0.809921
389.50000, 
390.00000,0.808487
390.50000, 
391.00000,0.807404
391.50000, 
392.00000,0.806335
392.50000, 
393.00000,0.805542
393.50000, 
394.00000,0.805069
394.50000, 
395.00000,0.804962
395.50000, 
396.00000,0.804413
396.50000, 
397.00000,0.804413
397.50000, 
398.00000,0.804367
398.50000, 
399.00000,0.804108
399.50000, 
400.00000,0.804245
400.50000, 
401.00000,0.804382
401.50000, 
402.00000,0.804642
402.50000, 
403.00000,0.805496
403.50000, 
404.00000,0.806305
404.50000, 
405.00000,0.807419
405.50000, 
406.00000,0.808746
406.50000, 
407.00000,0.810715
407.50000, 
408.00000,0.812622
408.50000, 
409.00000,0.814590
409.50000, 
410.00000,0.816681
410.50000, 
411.00000,0.818695
411.50000, 
412.00000,0.820450
412.50000, 
413.00000,0.822571
413.50000, 
414.00000,0.824692
414.50000, 
415.00000,0.826462
415.50000, 
416.00000,0.827484
416.50000, 
417.00000,0.828888
417.50000, 
418.00000,0.830978
418.50000, 
419.00000,0.832977
419.50000, 
420.00000,0.834900
420.50000, 
421.00000,0.837097
421.50000, 
422.00000,0.839325
422.50000, 
423.00000,0.841934
423.50000, 
424.00000,0.844513
424.50000, 
425.00000,0.847626
425.50000, 
426.00000,0.850494
426.50000, 
427.00000,0.853928
427.50000, 
428.00000,0.857758
428.50000, 
429.00000,0.861786
429.50000, 
430.00000,0.866165
430.50000, 
431.00000,0.870728
431.50000, 
432.00000,0.875320
432.50000, 
433.00000,0.879852
433.50000, 
434.00000,0.884476
434.50000, 
435.00000,0.888626
435.50000, 
436.00000,0.892548
436.50000, 
437.00000,0.896759
437.50000, 
438.00000,0.900696
438.50000, 
439.00000,0.904282
439.50000, 
440.00000,0.908051
440.50000, 
441.00000,0.911957
441.50000, 
442.00000,0.916016
442.50000, 
443.00000,0.919708
443.50000, 
444.00000,0.923996
444.50000, 
445.00000,0.928436
445.50000, 
446.00000,0.932739
446.50000, 
447.00000,0.937454
447.50000, 
448.00000,0.941956
448.50000, 
449.00000,0.946915
449.50000, 
450.00000,0.951294
450.50000, 
451.00000,0.956039
451.50000, 
452.00000,0.961319
452.50000, 
453.00000,0.966568
453.50000, 
454.00000,0.971893
454.50000, 
455.00000,0.977264
455.50000, 
456.00000,0.982727
456.50000, 
457.00000,0.988693
457.50000, 
458.00000,0.994308
458.50000, 
459.00000,1.000076
459.50000, 
460.00000,1.005997
460.50000, 
461.00000,1.012238
461.50000, 
462.00000,1.017929
462.50000, 
463.00000,1.024277
463.50000, 
464.00000,1.030716
464.50000, 
465.00000,1.036758
465.50000, 
466.00000,1.043243
466.50000, 
467.00000,1.049759
467.50000, 
468.00000,1.056458
468.50000, 
469.00000,1.062912
469.50000, 
470.00000,1.069565
470.50000, 
471.00000,1.076309
471.50000, 
472.00000,1.083023
472.50000, 
473.00000,1.089432
473.50000, 
474.00000,1.096451
474.50000, 
475.00000,1.103226
475.50000, 
476.00000,1.110321
476.50000, 
477.00000,1.117584
477.50000, 
478.00000,1.124847
478.50000, 
479.00000,1.131683
479.50000, 
480.00000,1.138718
480.50000, 
481.00000,1.145523
481.50000, 
482.00000,1.152237
482.50000, 
483.00000,1.158951
483.50000, 
484.00000,1.165802
484.50000, 
485.00000,1.172073
485.50000, 
486.00000,1.178406
486.50000, 
487.00000,1.184509
487.50000, 
488.00000,1.190308
488.50000, 
489.00000,1.196198
489.50000, 
490.00000,1.201691
490.50000, 
491.00000,1.207077
491.50000, 
492.00000,1.212219
492.50000, 
493.00000,1.217545
493.50000, 
494.00000,1.222733
494.50000, 
495.00000,1.227859
495.50000, 
496.00000,1.232758
496.50000, 
497.00000,1.237839
497.50000, 
498.00000,1.243073
498.50000, 
499.00000,1.248215
499.50000, 
500.00000,1.253418
500.50000, 
501.00000,1.258591
501.50000, 
502.00000,1.264175
502.50000, 
503.00000,1.269531
503.50000, 
504.00000,1.274948
504.50000, 
505.00000,1.280212
505.50000, 
506.00000,1.285675
506.50000, 
507.00000,1.290802
507.50000, 
508.00000,1.295975
508.50000, 
509.00000,1.300552
509.50000, 
510.00000,1.304993
510.50000, 
511.00000,1.309006
511.50000, 
512.00000,1.312744
512.50000, 
513.00000,1.315903
513.50000, 
514.00000,1.318710
514.50000, 
515.00000,1.321014
515.50000, 
516.00000,1.322800
516.50000, 
517.00000,1.324112
517.50000, 
518.00000,1.324997
518.50000, 
519.00000,1.325027
519.50000, 
520.00000,1.324799
520.50000, 
521.00000,1.324249
521.50000, 
522.00000,1.323044
522.50000, 
523.00000,1.321533
523.50000, 
524.00000,1.319595
524.50000, 
525.00000,1.317291
525.50000, 
526.00000,1.314819
526.50000, 
527.00000,1.311844
527.50000, 
528.00000,1.308838
528.50000, 
529.00000,1.305908
529.50000, 
530.00000,1.302811
530.50000, 
531.00000,1.299835
531.50000, 
532.00000,1.297119
532.50000, 
533.00000,1.294235
533.50000, 
534.00000,1.291718
534.50000, 
535.00000,1.289505
535.50000, 
536.00000,1.288269
536.50000, 
537.00000,1.287415
537.50000, 
538.00000,1.286270
538.50000, 
539.00000,1.285538
539.50000, 
540.00000,1.285324
540.50000, 
541.00000,1.285370
541.50000, 
542.00000,1.285812
542.50000, 
543.00000,1.286392
543.50000, 
544.00000,1.287338
544.50000, 
545.00000,1.288239
545.50000, 
546.00000,1.289505
546.50000, 
547.00000,1.290604
547.50000, 
548.00000,1.291672
548.50000, 
549.00000,1.292450
549.50000, 
550.00000,1.293228
550.50000, 
551.00000,1.293732
551.50000, 
552.00000,1.293488
552.50000, 
553.00000,1.292892
553.50000, 
554.00000,1.291794
554.50000, 
555.00000,1.289780
555.50000, 
556.00000,1.286880
556.50000, 
557.00000,1.283295
557.50000, 
558.00000,1.278549
558.50000, 
559.00000,1.272980
559.50000, 
560.00000,1.266891
560.50000, 
561.00000,1.259506
561.50000, 
562.00000,1.251419
562.50000, 
563.00000,1.242584
563.50000, 
564.00000,1.232544
564.50000, 
565.00000,1.221832
565.50000, 
566.00000,1.210922
566.50000, 
567.00000,1.199493
567.50000, 
568.00000,1.187241
568.50000, 
569.00000,1.174545
569.50000, 
570.00000,1.161530
570.50000, 
571.00000,1.148148
571.50000, 
572.00000,1.134796
572.50000, 
573.00000,1.121582
573.50000, 
574.00000,1.108261
574.50000, 
575.00000,1.094498
575.50000, 
576.00000,1.080917
576.50000, 
577.00000,1.067993
577.50000, 
578.00000,1.055786
578.50000, 
579.00000,1.044052
579.50000, 
580.00000,1.033386
580.50000, 
581.00000,1.023529
581.50000, 
582.00000,1.014191
582.50000, 
583.00000,1.006088
583.50000, 
584.00000,0.998215
584.50000, 
585.00000,0.991562
585.50000, 
586.00000,0.986084
586.50000, 
587.00000,0.981400
587.50000, 
588.00000,0.977539
588.50000, 
589.00000,0.974625
589.50000, 
590.00000,0.972519
590.50000, 
591.00000,0.970947
591.50000, 
592.00000,0.970108
592.50000, 
593.00000,0.969742
593.50000, 
594.00000,0.969879
594.50000, 
595.00000,0.970291
595.50000, 
596.00000,0.971039
596.50000, 
597.00000,0.971863
597.50000, 
598.00000,0.972763
598.50000, 
599.00000,0.973541
599.50000, 
600.00000,0.973999
600.50000, 
601.00000,0.974045
601.50000, 
602.00000,0.973480
602.50000, 
603.00000,0.972092
603.50000, 
604.00000,0.969742
604.50000, 
605.00000,0.966492
605.50000, 
606.00000,0.961975
606.50000, 
607.00000,0.956207
607.50000, 
608.00000,0.949402
608.50000, 
609.00000,0.941193
609.50000, 
610.00000,0.931747
610.50000, 
611.00000,0.921448
611.50000, 
612.00000,0.909622
612.50000, 
613.00000,0.896545
613.50000, 
614.00000,0.882324
614.50000, 
615.00000,0.866837
615.50000, 
616.00000,0.850525
616.50000, 
617.00000,0.833603
617.50000, 
618.00000,0.815598
618.50000, 
619.00000,0.797531
619.50000, 
620.00000,0.778961
620.50000, 
621.00000,0.759399
621.50000, 
622.00000,0.739304
622.50000, 
623.00000,0.718643
623.50000, 
624.00000,0.697464
624.50000, 
625.00000,0.676315
625.50000, 
626.00000,0.656097
626.50000, 
627.00000,0.636307
627.50000, 
628.00000,0.616898
628.50000, 
629.00000,0.597824
629.50000, 
630.00000,0.579498
630.50000, 
631.00000,0.561859
631.50000, 
632.00000,0.544724
632.50000, 
633.00000,0.528915
633.50000, 
634.00000,0.514130
634.50000, 
635.00000,0.499542
635.50000, 
636.00000,0.486710
636.50000, 
637.00000,0.474640
637.50000, 
638.00000,0.463776
638.50000, 
639.00000,0.453247
639.50000, 
640.00000,0.443619
640.50000, 
641.00000,0.434845
641.50000, 
642.00000,0.426651
642.50000, 
643.00000,0.419098
643.50000, 
644.00000,0.412079
644.50000, 
645.00000,0.405548
645.50000, 
646.00000,0.399292
646.50000, 
647.00000,0.393402
647.50000, 
648.00000,0.387924
648.50000, 
649.00000,0.382721
649.50000, 
650.00000,0.377899
650.50000, 
651.00000,0.373505
651.50000, 
652.00000,0.369308
652.50000, 
653.00000,0.365433
653.50000, 
654.00000,0.361816
654.50000, 
655.00000,0.358582
655.50000, 
656.00000,0.355545
656.50000, 
657.00000,0.352753
657.50000, 
658.00000,0.350235
658.50000, 
659.00000,0.347824
659.50000, 
660.00000,0.345520
660.50000, 
661.00000,0.343307
661.50000, 
662.00000,0.341293
662.50000, 
663.00000,0.339462
663.50000, 
664.00000,0.337784
664.50000, 
665.00000,0.336105
665.50000, 
666.00000,0.334579
666.50000, 
667.00000,0.333176
667.50000, 
668.00000,0.331741
668.50000, 
669.00000,0.330338
669.50000, 
670.00000,0.329056
670.50000, 
671.00000,0.327835
671.50000, 
672.00000,0.326492
672.50000, 
673.00000,0.325363
673.50000, 
674.00000,0.324280
674.50000, 
675.00000,0.323196
675.50000, 
676.00000,0.322144
676.50000, 
677.00000,0.321136
677.50000, 
678.00000,0.320114
678.50000, 
679.00000,0.319214
679.50000, 
680.00000,0.318359
680.50000, 
681.00000,0.317413
681.50000, 
682.00000,0.316483
682.50000, 
683.00000,0.315659
683.50000, 
684.00000,0.314941
684.50000, 
685.00000,0.314209
685.50000, 
686.00000,0.313446
686.50000, 
687.00000,0.312683
687.50000, 
688.00000,0.312012
688.50000, 
689.00000,0.311325
689.50000, 
690.00000,0.310593
690.50000, 
691.00000,0.309891
691.50000, 
692.00000,0.309250
692.50000, 
693.00000,0.308563
693.50000, 
694.00000,0.307968
694.50000, 
695.00000,0.307327
695.50000, 
696.00000,0.306702
696.50000, 
697.00000,0.306046
697.50000, 
698.00000,0.305374
698.50000, 
699.00000,0.304733
699.50000, 
700.00000,0.304108
700.50000, 
701.00000,0.303528
701.50000, 
702.00000,0.302872
702.50000, 
703.00000,0.302261
703.50000, 
704.00000,0.301712
704.50000, 
705.00000,0.301086
705.50000, 
706.00000,0.300461
706.50000, 
707.00000,0.299820
707.50000, 
708.00000,0.299210
708.50000, 
709.00000,0.298615
709.50000, 
710.00000,0.297928
710.50000, 
711.00000,0.297180
711.50000, 
712.00000,0.296402
712.50000, 
713.00000,0.295792
713.50000, 
714.00000,0.295013
714.50000, 
715.00000,0.294235
715.50000, 
716.00000,0.293427
716.50000, 
717.00000,0.292603
717.50000, 
718.00000,0.291763
718.50000, 
719.00000,0.290985
719.50000, 
720.00000,0.290207
720.50000, 
721.00000,0.289398
721.50000, 
722.00000,0.288666
722.50000, 
723.00000,0.287857
723.50000, 
724.00000,0.287094
724.50000, 
725.00000,0.286301
725.50000, 
726.00000,0.285599
726.50000, 
727.00000,0.284943
727.50000, 
728.00000,0.284210
728.50000, 
729.00000,0.283524
729.50000, 
730.00000,0.282898
730.50000, 
731.00000,0.282257
731.50000, 
732.00000,0.281494
732.50000, 
733.00000,0.280853
733.50000, 
734.00000,0.280212
734.50000, 
735.00000,0.279739
735.50000, 
736.00000,0.279022
736.50000, 
737.00000,0.278580
737.50000, 
738.00000,0.277878
738.50000, 
739.00000,0.277344
739.50000, 
740.00000,0.276779
740.50000, 
741.00000,0.276123
741.50000, 
742.00000,0.275497
742.50000, 
743.00000,0.274918
743.50000, 
744.00000,0.274338
744.50000, 
745.00000,0.273773
745.50000, 
746.00000,0.273148
746.50000, 
747.00000,0.272522
747.50000, 
748.00000,0.271896
748.50000, 
749.00000,0.271378
749.50000, 
750.00000,0.270844
750.50000, 
751.00000,0.270264
751.50000, 
752.00000,0.269669
752.50000, 
753.00000,0.269226
753.50000, 
754.00000,0.268677
754.50000, 
755.00000,0.268158
755.50000, 
756.00000,0.267563
756.50000, 
757.00000,0.267059
757.50000, 
758.00000,0.266602
758.50000, 
759.00000,0.266129
759.50000, 
760.00000,0.265686
760.50000, 
761.00000,0.265137
761.50000, 
762.00000,0.264587
762.50000, 
763.00000,0.264175
763.50000, 
764.00000,0.263641
764.50000, 
765.00000,0.263123
765.50000, 
766.00000,0.262634
766.50000, 
767.00000,0.262131
767.50000, 
768.00000,0.261642
768.50000, 
769.00000,0.261200
769.50000, 
770.00000,0.260712
770.50000, 
771.00000,0.260239
771.50000, 
772.00000,0.259750
772.50000, 
773.00000,0.259171
773.50000, 
774.00000,0.258728
774.50000, 
775.00000,0.258316
775.50000, 
776.00000,0.257843
776.50000, 
777.00000,0.257370
777.50000, 
778.00000,0.256943
778.50000, 
779.00000,0.256516
779.50000, 
780.00000,0.256104
780.50000, 
781.00000,0.255646
781.50000, 
782.00000,0.255234
782.50000, 
783.00000,0.254791
783.50000, 
784.00000,0.254318
784.50000, 
785.00000,0.253922
785.50000, 
786.00000,0.253510
786.50000, 
787.00000,0.253006
787.50000, 
788.00000,0.252594
788.50000, 
789.00000,0.252213
789.50000, 
790.00000,0.251801
790.50000, 
791.00000,0.251328
791.50000, 
792.00000,0.250900
792.50000, 
793.00000,0.250504
793.50000, 
794.00000,0.250076
794.50000, 
795.00000,0.249680
795.50000, 
796.00000,0.249268
796.50000, 
797.00000,0.248871
797.50000, 
798.00000,0.248489
798.50000, 
799.00000,0.248169
799.50000, 
800.00000,0.247711
800.50000, 
801.00000,0.247314
801.50000, 
802.00000,0.246918
802.50000, 
803.00000,0.246613
803.50000, 
804.00000,0.246246
804.50000, 
805.00000,0.245865
805.50000, 
806.00000,0.245544
806.50000, 
807.00000,0.245209
807.50000, 
808.00000,0.244873
808.50000, 
809.00000,0.244446
809.50000, 
810.00000,0.244019
810.50000, 
811.00000,0.243622
811.50000, 
812.00000,0.243301
812.50000, 
813.00000,0.242996
813.50000, 
814.00000,0.242676
814.50000, 
815.00000,0.242371
815.50000, 
816.00000,0.241959
816.50000, 
817.00000,0.241577
817.50000, 
818.00000,0.241211
818.50000, 
819.00000,0.240906
819.50000, 
820.00000,0.240616
820.50000, 
821.00000,0.240234
821.50000, 
822.00000,0.239944
822.50000, 
823.00000,0.239624
823.50000, 
824.00000,0.239304
824.50000, 
825.00000,0.239029
825.50000, 
826.00000,0.238724
826.50000, 
827.00000,0.238419
827.50000, 
828.00000,0.238068
828.50000, 
829.00000,0.237823
829.50000, 
830.00000,0.237473
830.50000, 
831.00000,0.237183
831.50000, 
832.00000,0.236893
832.50000, 
833.00000,0.236649
833.50000, 
834.00000,0.236343
834.50000, 
835.00000,0.236069
835.50000, 
836.00000,0.235794
836.50000, 
837.00000,0.235458
837.50000, 
838.00000,0.235214
838.50000, 
839.00000,0.234924
839.50000, 
840.00000,0.234665
840.50000, 
841.00000,0.234390
841.50000, 
842.00000,0.234131
842.50000, 
843.00000,0.233841
843.50000, 
844.00000,0.233566
844.50000, 
845.00000,0.233353
845.50000, 
846.00000,0.233093
846.50000, 
847.00000,0.232941
847.50000, 
848.00000,0.232681
848.50000, 
849.00000,0.232422
849.50000, 
850.00000,0.232117
850.50000, 
851.00000,0.231979
851.50000, 
852.00000,0.231750
852.50000, 
853.00000,0.231461
853.50000, 
854.00000,0.231308
854.50000, 
855.00000,0.231064
855.50000, 
856.00000,0.230865
856.50000, 
857.00000,0.230576
857.50000, 
858.00000,0.230316
858.50000, 
859.00000,0.230133
859.50000, 
860.00000,0.229889
860.50000, 
861.00000,0.229614
861.50000, 
862.00000,0.229477
862.50000, 
863.00000,0.229263
863.50000, 
864.00000,0.228989
864.50000, 
865.00000,0.228760
865.50000, 
866.00000,0.228561
866.50000, 
867.00000,0.228439
867.50000, 
868.00000,0.228256
868.50000, 
869.00000,0.228043
869.50000, 
870.00000,0.227844
870.50000, 
871.00000,0.227676
871.50000, 
872.00000,0.227509
872.50000, 
873.00000,0.227341
873.50000, 
874.00000,0.227203
874.50000, 
875.00000,0.226990
875.50000, 
876.00000,0.226852
876.50000, 
877.00000,0.226730
877.50000, 
878.00000,0.226563
878.50000, 
879.00000,0.226364
879.50000, 
880.00000,0.226166
880.50000, 
881.00000,0.225952
881.50000, 
882.00000,0.225815
882.50000, 
883.00000,0.225693
883.50000, 
884.00000,0.225510
884.50000, 
885.00000,0.225357
885.50000, 
886.00000,0.225220
886.50000, 
887.00000,0.225098
887.50000, 
888.00000,0.224899
888.50000, 
889.00000,0.224792
889.50000, 
890.00000,0.224716
890.50000, 
891.00000,0.224655
891.50000, 
892.00000,0.224564
892.50000, 
893.00000,0.224426
893.50000, 
894.00000,0.224274
894.50000, 
895.00000,0.224228
895.50000, 
896.00000,0.224274
896.50000, 
897.00000,0.224289
897.50000, 
898.00000,0.224304
898.50000, 
899.00000,0.224274
899.50000, 
900.00000,0.224213
900.50000, 
901.00000, 
901.50000, 
902.00000, 
902.50000, 
903.00000, 
903.50000, 
904.00000, 
904.50000, 
905.00000, 
905.50000, 
906.00000, 
906.50000, 
907.00000, 
907.50000, 
908.00000, 
908.50000, 
909.00000, 
909.50000, 
910.00000, 
910.50000, 
911.00000, 
911.50000, 
912.00000, 
912.50000, 
913.00000, 
913.50000, 
914.00000, 
914.50000, 
915.00000, 
915.50000, 
916.00000, 
916.50000, 
917.00000, 
917.50000, 
918.00000, 
918.50000, 
919.00000, 
919.50000, 
920.00000, 
920.50000, 
921.00000, 
921.50000, 
922.00000, 
922.50000, 
923.00000, 
923.50000, 
924.00000, 
924.50000, 
925.00000, 
925.50000, 
926.00000, 
926.50000, 
927.00000, 
927.50000, 
928.00000, 
928.50000, 
929.00000, 
929.50000, 
930.00000, 
930.50000, 
931.00000, 
931.50000, 
932.00000, 
932.50000, 
933.00000, 
933.50000, 
934.00000, 
934.50000, 
935.00000, 
935.50000, 
936.00000, 
936.50000, 
937.00000, 
937.50000, 
938.00000, 
938.50000, 
939.00000, 
939.50000, 
940.00000, 
940.50000, 
941.00000, 
941.50000, 
942.00000, 
942.50000, 
943.00000, 
943.50000, 
944.00000, 
944.50000, 
945.00000, 
945.50000, 
946.00000, 
946.50000, 
947.00000, 
947.50000, 
948.00000, 
948.50000, 
949.00000, 
949.50000, 
950.00000, 
950.50000, 
951.00000, 
951.50000, 
952.00000, 
952.50000, 
953.00000, 
953.50000, 
954.00000, 
954.50000, 
955.00000, 
955.50000, 
956.00000, 
956.50000, 
957.00000, 
957.50000, 
958.00000, 
958.50000, 
959.00000, 
959.50000, 
960.00000, 
960.50000, 
961.00000, 
961.50000, 
962.00000, 
962.50000, 
963.00000, 
963.50000, 
964.00000, 
964.50000, 
965.00000, 
965.50000, 
966.00000, 
966.50000, 
967.00000, 
967.50000, 
968.00000, 
968.50000, 
969.00000, 
969.50000, 
970.00000, 
970.50000, 
971.00000, 
971.50000, 
972.00000, 
972.50000, 
973.00000, 
973.50000, 
974.00000, 
974.50000, 
975.00000, 
975.50000, 
976.00000, 
976.50000, 
977.00000, 
977.50000, 
978.00000, 
978.50000, 
979.00000, 
979.50000, 
980.00000, 
980.50000, 
981.00000, 
981.50000, 
982.00000, 
982.50000, 
983.00000, 
983.50000, 
984.00000, 
984.50000, 
985.00000, 
985.50000, 
986.00000, 
986.50000, 
987.00000, 
987.50000, 
988.00000, 
988.50000, 
989.00000, 
989.50000, 
990.00000, 
990.50000, 
991.00000, 
991.50000, 
992.00000, 
992.50000, 
993.00000, 
993.50000, 
994.00000, 
994.50000, 
995.00000, 
995.50000, 
996.00000, 
996.50000, 
997.00000, 
997.50000, 
998.00000, 
998.50000, 
999.00000, 
999.50000, 
1000.00000, 
1000.50000, 
1001.00000, 
1001.50000, 
1002.00000, 
1002.50000, 
1003.00000, 
1003.50000, 
1004.00000, 
1004.50000, 
1005.00000, 
1005.50000, 
1006.00000, 
1006.50000, 
1007.00000, 
1007.50000, 
1008.00000, 
1008.50000, 
1009.00000, 
1009.50000, 
1010.00000, 
1010.50000, 
1011.00000, 
1011.50000, 
1012.00000, 
1012.50000, 
1013.00000, 
1013.50000, 
1014.00000, 
1014.50000, 
1015.00000, 
1015.50000, 
1016.00000, 
1016.50000, 
1017.00000, 
1017.50000, 
1018.00000, 
1018.50000, 
1019.00000, 
1019.50000, 
1020.00000, 
1020.50000, 
1021.00000, 
1021.50000, 
1022.00000, 
1022.50000, 
1023.00000, 
1023.50000, 
1024.00000, 
1024.50000, 
1025.00000, 
1025.50000, 
1026.00000, 
1026.50000, 
1027.00000, 
1027.50000, 
1028.00000, 
1028.50000, 
1029.00000, 
1029.50000, 
1030.00000, 
1030.50000, 
1031.00000, 
1031.50000, 
1032.00000, 
1032.50000, 
1033.00000, 
1033.50000, 
1034.00000, 
1034.50000, 
1035.00000, 
1035.50000, 
1036.00000, 
1036.50000, 
1037.00000, 
1037.50000, 
1038.00000, 
1038.50000, 
1039.00000, 
1039.50000, 
1040.00000, 
1040.50000, 
1041.00000, 
1041.50000, 
1042.00000, 
1042.50000, 
1043.00000, 
1043.50000, 
1044.00000, 
1044.50000, 
1045.00000, 
1045.50000, 
1046.00000, 
1046.50000, 
1047.00000, 
1047.50000, 
1048.00000, 
1048.50000, 
1049.00000, 
1049.50000, 
1050.00000, 
1050.50000, 
1051.00000, 
1051.50000, 
1052.00000, 
1052.50000, 
1053.00000, 
1053.50000, 
1054.00000, 
1054.50000, 
1055.00000, 
1055.50000, 
1056.00000, 
1056.50000, 
1057.00000, 
1057.50000, 
1058.00000, 
1058.50000, 
1059.00000, 
1059.50000, 
1060.00000, 
1060.50000, 
1061.00000, 
1061.50000, 
1062.00000, 
1062.50000, 
1063.00000, 
1063.50000, 
1064.00000, 
1064.50000, 
1065.00000, 
1065.50000, 
1066.00000, 
1066.50000, 
1067.00000, 
1067.50000, 
1068.00000, 
1068.50000, 
1069.00000, 
1069.50000, 
1070.00000, 
1070.50000, 
1071.00000, 
1071.50000, 
1072.00000, 
1072.50000, 
1073.00000, 
1073.50000, 
1074.00000, 
1074.50000, 
1075.00000, 
1075.50000, 
1076.00000, 
1076.50000, 
1077.00000, 
1077.50000, 
1078.00000, 
1078.50000, 
1079.00000, 
1079.50000, 
1080.00000, 
1080.50000, 
1081.00000, 
1081.50000, 
1082.00000, 
1082.50000, 
1083.00000, 
1083.50000, 
1084.00000, 
1084.50000, 
1085.00000, 
1085.50000, 
1086.00000, 
1086.50000, 
1087.00000, 
1087.50000, 
1088.00000, 
1088.50000, 
1089.00000, 
1089.50000, 
1090.00000, 
1090.50000, 
1091.00000, 
1091.50000, 
1092.00000, 
1092.50000, 
1093.00000, 
1093.50000, 
1094.00000, 
1094.50000, 
1095.00000, 
1095.50000, 
1096.00000, 
1096.50000, 
1097.00000, 
1097.50000, 
1098.00000, 
1098.50000, 
1099.00000, 
1099.50000, 
1100.00000, 
