"10% Tension H - RawData"
"Wavelength nm.","Abs."
300.00000,3.964478
300.50000, 
301.00000,3.891251
301.50000, 
302.00000,3.905609
302.50000, 
303.00000,3.914978
303.50000, 
304.00000,3.894196
304.50000, 
305.00000,3.926758
305.50000, 
306.00000,3.898407
306.50000, 
307.00000,3.919418
307.50000, 
308.00000,3.876480
308.50000, 
309.00000,3.994141
309.50000, 
310.00000,3.846344
310.50000, 
311.00000,3.851395
311.50000, 
312.00000,3.972473
312.50000, 
313.00000,3.882721
313.50000, 
314.00000,3.926926
314.50000, 
315.00000,3.992401
315.50000, 
316.00000,3.935120
316.50000, 
317.00000,3.945404
317.50000, 
318.00000,3.939743
318.50000, 
319.00000,3.791153
319.50000, 
320.00000,3.842728
320.50000, 
321.00000,3.996185
321.50000, 
322.00000,3.880814
322.50000, 
323.00000,3.854675
323.50000, 
324.00000,3.858170
324.50000, 
325.00000,3.860428
325.50000, 
326.00000,3.960358
326.50000, 
327.00000,3.931091
327.50000, 
328.00000,3.983002
328.50000, 
329.00000,3.964752
329.50000, 
330.00000,3.855865
330.50000, 
331.00000,3.816254
331.50000, 
332.00000,3.923172
332.50000, 
333.00000,3.840912
333.50000, 
334.00000,3.953262
334.50000, 
335.00000,3.997742
335.50000, 
336.00000,3.911560
336.50000, 
337.00000,3.967163
337.50000, 
338.00000,3.803558
338.50000, 
339.00000,3.880966
339.50000, 
340.00000,3.533005
340.50000, 
341.00000,3.749374
341.50000, 
342.00000,3.803314
342.50000, 
343.00000,3.669266
343.50000, 
344.00000,3.859711
344.50000, 
345.00000,3.784698
345.50000, 
346.00000,3.830887
346.50000, 
347.00000,3.972855
347.50000, 
348.00000,3.715256
348.50000, 
349.00000,3.953979
349.50000, 
350.00000,3.870087
350.50000, 
351.00000,3.643768
351.50000, 
352.00000,3.841751
352.50000, 
353.00000,3.670273
353.50000, 
354.00000,3.628326
354.50000, 
355.00000,3.975128
355.50000, 
356.00000,3.764084
356.50000, 
357.00000,3.867584
357.50000, 
358.00000,3.956238
358.50000, 
359.00000,3.810165
359.50000, 
360.00000,3.939484
360.50000, 
361.00000,3.865036
361.50000, 
362.00000,3.866623
362.50000, 
363.00000,3.566666
363.50000, 
364.00000,3.870926
364.50000, 
365.00000,3.806076
365.50000, 
366.00000,3.765457
366.50000, 
367.00000,3.770966
367.50000, 
368.00000,3.852402
368.50000, 
369.00000,3.885101
369.50000, 
370.00000,3.956680
370.50000, 
371.00000,3.886353
371.50000, 
372.00000,3.767929
372.50000, 
373.00000,3.853424
373.50000, 
374.00000,3.892212
374.50000, 
375.00000,3.912186
375.50000, 
376.00000,3.773727
376.50000, 
377.00000,3.737473
377.50000, 
378.00000,3.753616
378.50000, 
379.00000,3.928040
379.50000, 
380.00000,3.748734
380.50000, 
381.00000,3.680939
381.50000, 
382.00000,3.743149
382.50000, 
383.00000,3.563171
383.50000, 
384.00000,3.286453
384.50000, 
385.00000,3.045792
385.50000, 
386.00000,2.889984
386.50000, 
387.00000,2.685745
387.50000, 
388.00000,2.528702
388.50000, 
389.00000,2.358444
389.50000, 
390.00000,2.212540
390.50000, 
391.00000,2.082474
391.50000, 
392.00000,1.981781
392.50000, 
393.00000,1.889267
393.50000, 
394.00000,1.797607
394.50000, 
395.00000,1.717636
395.50000, 
396.00000,1.646790
396.50000, 
397.00000,1.583344
397.50000, 
398.00000,1.529724
398.50000, 
399.00000,1.483398
399.50000, 
400.00000,1.442291
400.50000, 
401.00000,1.408340
401.50000, 
402.00000,1.379776
402.50000, 
403.00000,1.356613
403.50000, 
404.00000,1.337555
404.50000, 
405.00000,1.321976
405.50000, 
406.00000,1.310349
406.50000, 
407.00000,1.300980
407.50000, 
408.00000,1.293747
408.50000, 
409.00000,1.288040
409.50000, 
410.00000,1.283234
410.50000, 
411.00000,1.280228
411.50000, 
412.00000,1.277557
412.50000, 
413.00000,1.274933
413.50000, 
414.00000,1.274033
414.50000, 
415.00000,1.273468
415.50000, 
416.00000,1.272415
416.50000, 
417.00000,1.271957
417.50000, 
418.00000,1.272049
418.50000, 
419.00000,1.272552
419.50000, 
420.00000,1.273193
420.50000, 
421.00000,1.274689
421.50000, 
422.00000,1.275574
422.50000, 
423.00000,1.276566
423.50000, 
424.00000,1.278610
424.50000, 
425.00000,1.279892
425.50000, 
426.00000,1.282166
426.50000, 
427.00000,1.284866
427.50000, 
428.00000,1.287781
428.50000, 
429.00000,1.291504
429.50000, 
430.00000,1.295303
430.50000, 
431.00000,1.299545
431.50000, 
432.00000,1.303421
432.50000, 
433.00000,1.306992
433.50000, 
434.00000,1.311508
434.50000, 
435.00000,1.314957
435.50000, 
436.00000,1.318130
436.50000, 
437.00000,1.321747
437.50000, 
438.00000,1.325256
438.50000, 
439.00000,1.328247
439.50000, 
440.00000,1.332153
440.50000, 
441.00000,1.335190
441.50000, 
442.00000,1.338806
442.50000, 
443.00000,1.341904
443.50000, 
444.00000,1.346146
444.50000, 
445.00000,1.350418
445.50000, 
446.00000,1.353943
446.50000, 
447.00000,1.358078
447.50000, 
448.00000,1.362289
448.50000, 
449.00000,1.366638
449.50000, 
450.00000,1.370590
450.50000, 
451.00000,1.375351
451.50000, 
452.00000,1.380127
452.50000, 
453.00000,1.385178
453.50000, 
454.00000,1.390060
454.50000, 
455.00000,1.395370
455.50000, 
456.00000,1.400726
456.50000, 
457.00000,1.406036
457.50000, 
458.00000,1.411621
458.50000, 
459.00000,1.416840
459.50000, 
460.00000,1.422760
460.50000, 
461.00000,1.429031
461.50000, 
462.00000,1.434662
462.50000, 
463.00000,1.440872
463.50000, 
464.00000,1.447083
464.50000, 
465.00000,1.453384
465.50000, 
466.00000,1.459717
466.50000, 
467.00000,1.466232
467.50000, 
468.00000,1.473694
468.50000, 
469.00000,1.480148
469.50000, 
470.00000,1.487747
470.50000, 
471.00000,1.495621
471.50000, 
472.00000,1.504501
472.50000, 
473.00000,1.514450
473.50000, 
474.00000,1.522842
474.50000, 
475.00000,1.527512
475.50000, 
476.00000,1.532410
476.50000, 
477.00000,1.536331
477.50000, 
478.00000,1.539810
478.50000, 
479.00000,1.542297
479.50000, 
480.00000,1.543945
480.50000, 
481.00000,1.544891
481.50000, 
482.00000,1.544540
482.50000, 
483.00000,1.543182
483.50000, 
484.00000,1.541092
484.50000, 
485.00000,1.538971
485.50000, 
486.00000,1.535965
486.50000, 
487.00000,1.532303
487.50000, 
488.00000,1.529297
488.50000, 
489.00000,1.526840
489.50000, 
490.00000,1.525833
490.50000, 
491.00000,1.525421
491.50000, 
492.00000,1.526459
492.50000, 
493.00000,1.528702
493.50000, 
494.00000,1.532288
494.50000, 
495.00000,1.537064
495.50000, 
496.00000,1.542404
496.50000, 
497.00000,1.548431
497.50000, 
498.00000,1.555374
498.50000, 
499.00000,1.562119
499.50000, 
500.00000,1.569778
500.50000, 
501.00000,1.577682
501.50000, 
502.00000,1.585663
502.50000, 
503.00000,1.593521
503.50000, 
504.00000,1.601227
504.50000, 
505.00000,1.609512
505.50000, 
506.00000,1.617691
506.50000, 
507.00000,1.624573
507.50000, 
508.00000,1.631927
508.50000, 
509.00000,1.638229
509.50000, 
510.00000,1.644745
510.50000, 
511.00000,1.650330
511.50000, 
512.00000,1.655548
512.50000, 
513.00000,1.660370
513.50000, 
514.00000,1.664627
514.50000, 
515.00000,1.668182
515.50000, 
516.00000,1.671280
516.50000, 
517.00000,1.673889
517.50000, 
518.00000,1.675980
518.50000, 
519.00000,1.677490
519.50000, 
520.00000,1.678009
520.50000, 
521.00000,1.678665
521.50000, 
522.00000,1.678360
522.50000, 
523.00000,1.677536
523.50000, 
524.00000,1.676682
524.50000, 
525.00000,1.675598
525.50000, 
526.00000,1.673721
526.50000, 
527.00000,1.671997
527.50000, 
528.00000,1.669632
528.50000, 
529.00000,1.667664
529.50000, 
530.00000,1.665100
530.50000, 
531.00000,1.662659
531.50000, 
532.00000,1.660721
532.50000, 
533.00000,1.658524
533.50000, 
534.00000,1.656143
534.50000, 
535.00000,1.654953
535.50000, 
536.00000,1.653519
536.50000, 
537.00000,1.652496
537.50000, 
538.00000,1.651337
538.50000, 
539.00000,1.651062
539.50000, 
540.00000,1.651596
540.50000, 
541.00000,1.651733
541.50000, 
542.00000,1.652237
542.50000, 
543.00000,1.653198
543.50000, 
544.00000,1.654175
544.50000, 
545.00000,1.655319
545.50000, 
546.00000,1.656509
546.50000, 
547.00000,1.657898
547.50000, 
548.00000,1.658813
548.50000, 
549.00000,1.659576
549.50000, 
550.00000,1.660416
550.50000, 
551.00000,1.660995
551.50000, 
552.00000,1.660797
552.50000, 
553.00000,1.660217
553.50000, 
554.00000,1.658829
554.50000, 
555.00000,1.656769
555.50000, 
556.00000,1.654007
556.50000, 
557.00000,1.650330
557.50000, 
558.00000,1.645447
558.50000, 
559.00000,1.639893
559.50000, 
560.00000,1.633408
560.50000, 
561.00000,1.626221
561.50000, 
562.00000,1.617935
562.50000, 
563.00000,1.609070
563.50000, 
564.00000,1.598984
564.50000, 
565.00000,1.588318
565.50000, 
566.00000,1.577072
566.50000, 
567.00000,1.565430
567.50000, 
568.00000,1.552826
568.50000, 
569.00000,1.539856
569.50000, 
570.00000,1.526871
570.50000, 
571.00000,1.513443
571.50000, 
572.00000,1.500198
572.50000, 
573.00000,1.486847
573.50000, 
574.00000,1.472977
574.50000, 
575.00000,1.458710
575.50000, 
576.00000,1.444855
576.50000, 
577.00000,1.431702
577.50000, 
578.00000,1.419128
578.50000, 
579.00000,1.406860
579.50000, 
580.00000,1.395477
580.50000, 
581.00000,1.385117
581.50000, 
582.00000,1.375397
582.50000, 
583.00000,1.366867
583.50000, 
584.00000,1.358994
584.50000, 
585.00000,1.352127
585.50000, 
586.00000,1.346298
586.50000, 
587.00000,1.341141
587.50000, 
588.00000,1.336914
588.50000, 
589.00000,1.333817
589.50000, 
590.00000,1.331360
590.50000, 
591.00000,1.329590
591.50000, 
592.00000,1.328461
592.50000, 
593.00000,1.327744
593.50000, 
594.00000,1.327545
594.50000, 
595.00000,1.327606
595.50000, 
596.00000,1.327911
596.50000, 
597.00000,1.328232
597.50000, 
598.00000,1.328705
598.50000, 
599.00000,1.328873
599.50000, 
600.00000,1.328705
600.50000, 
601.00000,1.328018
601.50000, 
602.00000,1.326630
602.50000, 
603.00000,1.324493
603.50000, 
604.00000,1.321304
604.50000, 
605.00000,1.317017
605.50000, 
606.00000,1.311630
606.50000, 
607.00000,1.304916
607.50000, 
608.00000,1.297256
608.50000, 
609.00000,1.288162
609.50000, 
610.00000,1.277710
610.50000, 
611.00000,1.266479
611.50000, 
612.00000,1.253265
612.50000, 
613.00000,1.238983
613.50000, 
614.00000,1.223602
614.50000, 
615.00000,1.207382
615.50000, 
616.00000,1.190369
616.50000, 
617.00000,1.172791
617.50000, 
618.00000,1.153717
618.50000, 
619.00000,1.134247
619.50000, 
620.00000,1.114273
620.50000, 
621.00000,1.093323
621.50000, 
622.00000,1.071991
622.50000, 
623.00000,1.050476
623.50000, 
624.00000,1.028229
624.50000, 
625.00000,1.005997
625.50000, 
626.00000,0.984772
626.50000, 
627.00000,0.963928
627.50000, 
628.00000,0.943512
628.50000, 
629.00000,0.923492
629.50000, 
630.00000,0.904388
630.50000, 
631.00000,0.886749
631.50000, 
632.00000,0.870361
632.50000, 
633.00000,0.856232
633.50000, 
634.00000,0.845245
634.50000, 
635.00000,0.829346
635.50000, 
636.00000,0.807388
636.50000, 
637.00000,0.784210
637.50000, 
638.00000,0.761200
638.50000, 
639.00000,0.736969
639.50000, 
640.00000,0.713272
640.50000, 
641.00000,0.690750
641.50000, 
642.00000,0.669388
642.50000, 
643.00000,0.650848
643.50000, 
644.00000,0.635025
644.50000, 
645.00000,0.622116
645.50000, 
646.00000,0.611725
646.50000, 
647.00000,0.603790
647.50000, 
648.00000,0.598007
648.50000, 
649.00000,0.593887
649.50000, 
650.00000,0.591232
650.50000, 
651.00000,0.589584
651.50000, 
652.00000,0.588699
652.50000, 
653.00000,0.588120
653.50000, 
654.00000,0.587921
654.50000, 
655.00000,0.587891
655.50000, 
656.00000,0.587967
656.50000, 
657.00000,0.588089
657.50000, 
658.00000,0.588165
658.50000, 
659.00000,0.588196
659.50000, 
660.00000,0.588165
660.50000, 
661.00000,0.588120
661.50000, 
662.00000,0.587891
662.50000, 
663.00000,0.587845
663.50000, 
664.00000,0.587677
664.50000, 
665.00000,0.587509
665.50000, 
666.00000,0.587158
666.50000, 
667.00000,0.586884
667.50000, 
668.00000,0.586380
668.50000, 
669.00000,0.586044
669.50000, 
670.00000,0.585541
670.50000, 
671.00000,0.585175
671.50000, 
672.00000,0.584518
672.50000, 
673.00000,0.584091
673.50000, 
674.00000,0.583359
674.50000, 
675.00000,0.582886
675.50000, 
676.00000,0.582138
676.50000, 
677.00000,0.581467
677.50000, 
678.00000,0.580521
678.50000, 
679.00000,0.579941
679.50000, 
680.00000,0.579102
680.50000, 
681.00000,0.578323
681.50000, 
682.00000,0.577423
682.50000, 
683.00000,0.576736
683.50000, 
684.00000,0.575851
684.50000, 
685.00000,0.575211
685.50000, 
686.00000,0.574173
686.50000, 
687.00000,0.573318
687.50000, 
688.00000,0.572296
688.50000, 
689.00000,0.571579
689.50000, 
690.00000,0.570404
690.50000, 
691.00000,0.569580
691.50000, 
692.00000,0.568497
692.50000, 
693.00000,0.567612
693.50000, 
694.00000,0.566483
694.50000, 
695.00000,0.565750
695.50000, 
696.00000,0.564575
696.50000, 
697.00000,0.563599
697.50000, 
698.00000,0.562393
698.50000, 
699.00000,0.561417
699.50000, 
700.00000,0.560211
700.50000, 
701.00000,0.559219
701.50000, 
702.00000,0.558014
702.50000, 
703.00000,0.556793
703.50000, 
704.00000,0.555832
704.50000, 
705.00000,0.554657
705.50000, 
706.00000,0.553589
706.50000, 
707.00000,0.552185
707.50000, 
708.00000,0.551178
708.50000, 
709.00000,0.549744
709.50000, 
710.00000,0.548752
710.50000, 
711.00000,0.547180
711.50000, 
712.00000,0.546066
712.50000, 
713.00000,0.544693
713.50000, 
714.00000,0.543320
714.50000, 
715.00000,0.541901
715.50000, 
716.00000,0.540390
716.50000, 
717.00000,0.539200
717.50000, 
718.00000,0.537384
718.50000, 
719.00000,0.536240
719.50000, 
720.00000,0.534470
720.50000, 
721.00000,0.533234
721.50000, 
722.00000,0.531631
722.50000, 
723.00000,0.530319
723.50000, 
724.00000,0.528839
724.50000, 
725.00000,0.527222
725.50000, 
726.00000,0.526047
726.50000, 
727.00000,0.524414
727.50000, 
728.00000,0.523285
728.50000, 
729.00000,0.521652
729.50000, 
730.00000,0.520462
730.50000, 
731.00000,0.518967
731.50000, 
732.00000,0.517670
732.50000, 
733.00000,0.516541
733.50000, 
734.00000,0.514938
734.50000, 
735.00000,0.513947
735.50000, 
736.00000,0.512390
736.50000, 
737.00000,0.511215
737.50000, 
738.00000,0.509918
738.50000, 
739.00000,0.508530
739.50000, 
740.00000,0.507553
740.50000, 
741.00000,0.505890
741.50000, 
742.00000,0.504822
742.50000, 
743.00000,0.503326
743.50000, 
744.00000,0.502090
744.50000, 
745.00000,0.500916
745.50000, 
746.00000,0.499268
746.50000, 
747.00000,0.498245
747.50000, 
748.00000,0.496613
748.50000, 
749.00000,0.495605
749.50000, 
750.00000,0.494293
750.50000, 
751.00000,0.492874
751.50000, 
752.00000,0.491898
752.50000, 
753.00000,0.490417
753.50000, 
754.00000,0.489410
754.50000, 
755.00000,0.488251
755.50000, 
756.00000,0.486801
756.50000, 
757.00000,0.486008
757.50000, 
758.00000,0.484467
758.50000, 
759.00000,0.483505
759.50000, 
760.00000,0.482437
760.50000, 
761.00000,0.480774
761.50000, 
762.00000,0.480072
762.50000, 
763.00000,0.478653
763.50000, 
764.00000,0.477631
764.50000, 
765.00000,0.476547
765.50000, 
766.00000,0.475113
766.50000, 
767.00000,0.474274
767.50000, 
768.00000,0.472717
768.50000, 
769.00000,0.471741
769.50000, 
770.00000,0.470795
770.50000, 
771.00000,0.469376
771.50000, 
772.00000,0.468536
772.50000, 
773.00000,0.467194
773.50000, 
774.00000,0.466049
774.50000, 
775.00000,0.465240
775.50000, 
776.00000,0.463776
776.50000, 
777.00000,0.463058
777.50000, 
778.00000,0.461899
778.50000, 
779.00000,0.460556
779.50000, 
780.00000,0.459991
780.50000, 
781.00000,0.458588
781.50000, 
782.00000,0.457596
782.50000, 
783.00000,0.456741
783.50000, 
784.00000,0.455246
784.50000, 
785.00000,0.454514
785.50000, 
786.00000,0.453598
786.50000, 
787.00000,0.452057
787.50000, 
788.00000,0.451462
788.50000, 
789.00000,0.449966
789.50000, 
790.00000,0.448944
790.50000, 
791.00000,0.448044
791.50000, 
792.00000,0.446655
792.50000, 
793.00000,0.445801
793.50000, 
794.00000,0.444763
794.50000, 
795.00000,0.443375
795.50000, 
796.00000,0.442810
796.50000, 
797.00000,0.441345
797.50000, 
798.00000,0.440140
798.50000, 
799.00000,0.439407
799.50000, 
800.00000,0.437973
800.50000, 
801.00000,0.436874
801.50000, 
802.00000,0.436127
802.50000, 
803.00000,0.434509
803.50000, 
804.00000,0.433594
804.50000, 
805.00000,0.432556
805.50000, 
806.00000,0.431168
806.50000, 
807.00000,0.430145
807.50000, 
808.00000,0.429199
808.50000, 
809.00000,0.427292
809.50000, 
810.00000,0.426468
810.50000, 
811.00000,0.425018
811.50000, 
812.00000,0.423492
812.50000, 
813.00000,0.422485
813.50000, 
814.00000,0.421127
814.50000, 
815.00000,0.419464
815.50000, 
816.00000,0.418579
816.50000, 
817.00000,0.416595
817.50000, 
818.00000,0.415115
818.50000, 
819.00000,0.413940
819.50000, 
820.00000,0.412369
820.50000, 
821.00000,0.410706
821.50000, 
822.00000,0.409744
822.50000, 
823.00000,0.407669
823.50000, 
824.00000,0.406174
824.50000, 
825.00000,0.404938
825.50000, 
826.00000,0.403168
826.50000, 
827.00000,0.401535
827.50000, 
828.00000,0.400177
828.50000, 
829.00000,0.398315
829.50000, 
830.00000,0.396484
830.50000, 
831.00000,0.395264
831.50000, 
832.00000,0.393036
832.50000, 
833.00000,0.391464
833.50000, 
834.00000,0.389893
834.50000, 
835.00000,0.388062
835.50000, 
836.00000,0.385956
836.50000, 
837.00000,0.384567
837.50000, 
838.00000,0.382278
838.50000, 
839.00000,0.380417
839.50000, 
840.00000,0.378937
840.50000, 
841.00000,0.376877
841.50000, 
842.00000,0.374893
842.50000, 
843.00000,0.373230
843.50000, 
844.00000,0.371307
844.50000, 
845.00000,0.368988
845.50000, 
846.00000,0.367691
846.50000, 
847.00000,0.365692
847.50000, 
848.00000,0.363739
848.50000, 
849.00000,0.362015
849.50000, 
850.00000,0.360275
850.50000, 
851.00000,0.358231
851.50000, 
852.00000,0.356415
852.50000, 
853.00000,0.354950
853.50000, 
854.00000,0.352478
854.50000, 
855.00000,0.350693
855.50000, 
856.00000,0.348984
856.50000, 
857.00000,0.346909
857.50000, 
858.00000,0.344757
858.50000, 
859.00000,0.343201
859.50000, 
860.00000,0.341248
860.50000, 
861.00000,0.339157
861.50000, 
862.00000,0.337784
862.50000, 
863.00000,0.335663
863.50000, 
864.00000,0.333710
864.50000, 
865.00000,0.332077
865.50000, 
866.00000,0.330536
866.50000, 
867.00000,0.328506
867.50000, 
868.00000,0.326843
868.50000, 
869.00000,0.325607
869.50000, 
870.00000,0.323456
870.50000, 
871.00000,0.321930
871.50000, 
872.00000,0.320541
872.50000, 
873.00000,0.318848
873.50000, 
874.00000,0.317078
874.50000, 
875.00000,0.315628
875.50000, 
876.00000,0.314392
876.50000, 
877.00000,0.312378
877.50000, 
878.00000,0.311050
878.50000, 
879.00000,0.309647
879.50000, 
880.00000,0.307892
880.50000, 
881.00000,0.306335
881.50000, 
882.00000,0.304947
882.50000, 
883.00000,0.303741
883.50000, 
884.00000,0.302002
884.50000, 
885.00000,0.300873
885.50000, 
886.00000,0.299713
886.50000, 
887.00000,0.298096
887.50000, 
888.00000,0.296875
888.50000, 
889.00000,0.295654
889.50000, 
890.00000,0.294678
890.50000, 
891.00000,0.293228
891.50000, 
892.00000,0.292130
892.50000, 
893.00000,0.291458
893.50000, 
894.00000,0.289871
894.50000, 
895.00000,0.288834
895.50000, 
896.00000,0.288132
896.50000, 
897.00000,0.286880
897.50000, 
898.00000,0.285950
898.50000, 
899.00000,0.285019
899.50000, 
900.00000,0.284256
900.50000, 
901.00000, 
901.50000, 
902.00000, 
902.50000, 
903.00000, 
903.50000, 
904.00000, 
904.50000, 
905.00000, 
905.50000, 
906.00000, 
906.50000, 
907.00000, 
907.50000, 
908.00000, 
908.50000, 
909.00000, 
909.50000, 
910.00000, 
910.50000, 
911.00000, 
911.50000, 
912.00000, 
912.50000, 
913.00000, 
913.50000, 
914.00000, 
914.50000, 
915.00000, 
915.50000, 
916.00000, 
916.50000, 
917.00000, 
917.50000, 
918.00000, 
918.50000, 
919.00000, 
919.50000, 
920.00000, 
920.50000, 
921.00000, 
921.50000, 
922.00000, 
922.50000, 
923.00000, 
923.50000, 
924.00000, 
924.50000, 
925.00000, 
925.50000, 
926.00000, 
926.50000, 
927.00000, 
927.50000, 
928.00000, 
928.50000, 
929.00000, 
929.50000, 
930.00000, 
930.50000, 
931.00000, 
931.50000, 
932.00000, 
932.50000, 
933.00000, 
933.50000, 
934.00000, 
934.50000, 
935.00000, 
935.50000, 
936.00000, 
936.50000, 
937.00000, 
937.50000, 
938.00000, 
938.50000, 
939.00000, 
939.50000, 
940.00000, 
940.50000, 
941.00000, 
941.50000, 
942.00000, 
942.50000, 
943.00000, 
943.50000, 
944.00000, 
944.50000, 
945.00000, 
945.50000, 
946.00000, 
946.50000, 
947.00000, 
947.50000, 
948.00000, 
948.50000, 
949.00000, 
949.50000, 
950.00000, 
950.50000, 
951.00000, 
951.50000, 
952.00000, 
952.50000, 
953.00000, 
953.50000, 
954.00000, 
954.50000, 
955.00000, 
955.50000, 
956.00000, 
956.50000, 
957.00000, 
957.50000, 
958.00000, 
958.50000, 
959.00000, 
959.50000, 
960.00000, 
960.50000, 
961.00000, 
961.50000, 
962.00000, 
962.50000, 
963.00000, 
963.50000, 
964.00000, 
964.50000, 
965.00000, 
965.50000, 
966.00000, 
966.50000, 
967.00000, 
967.50000, 
968.00000, 
968.50000, 
969.00000, 
969.50000, 
970.00000, 
970.50000, 
971.00000, 
971.50000, 
972.00000, 
972.50000, 
973.00000, 
973.50000, 
974.00000, 
974.50000, 
975.00000, 
975.50000, 
976.00000, 
976.50000, 
977.00000, 
977.50000, 
978.00000, 
978.50000, 
979.00000, 
979.50000, 
980.00000, 
980.50000, 
981.00000, 
981.50000, 
982.00000, 
982.50000, 
983.00000, 
983.50000, 
984.00000, 
984.50000, 
985.00000, 
985.50000, 
986.00000, 
986.50000, 
987.00000, 
987.50000, 
988.00000, 
988.50000, 
989.00000, 
989.50000, 
990.00000, 
990.50000, 
991.00000, 
991.50000, 
992.00000, 
992.50000, 
993.00000, 
993.50000, 
994.00000, 
994.50000, 
995.00000, 
995.50000, 
996.00000, 
996.50000, 
997.00000, 
997.50000, 
998.00000, 
998.50000, 
999.00000, 
999.50000, 
1000.00000, 
1000.50000, 
1001.00000, 
1001.50000, 
1002.00000, 
1002.50000, 
1003.00000, 
1003.50000, 
1004.00000, 
1004.50000, 
1005.00000, 
1005.50000, 
1006.00000, 
1006.50000, 
1007.00000, 
1007.50000, 
1008.00000, 
1008.50000, 
1009.00000, 
1009.50000, 
1010.00000, 
1010.50000, 
1011.00000, 
1011.50000, 
1012.00000, 
1012.50000, 
1013.00000, 
1013.50000, 
1014.00000, 
1014.50000, 
1015.00000, 
1015.50000, 
1016.00000, 
1016.50000, 
1017.00000, 
1017.50000, 
1018.00000, 
1018.50000, 
1019.00000, 
1019.50000, 
1020.00000, 
1020.50000, 
1021.00000, 
1021.50000, 
1022.00000, 
1022.50000, 
1023.00000, 
1023.50000, 
1024.00000, 
1024.50000, 
1025.00000, 
1025.50000, 
1026.00000, 
1026.50000, 
1027.00000, 
1027.50000, 
1028.00000, 
1028.50000, 
1029.00000, 
1029.50000, 
1030.00000, 
1030.50000, 
1031.00000, 
1031.50000, 
1032.00000, 
1032.50000, 
1033.00000, 
1033.50000, 
1034.00000, 
1034.50000, 
1035.00000, 
1035.50000, 
1036.00000, 
1036.50000, 
1037.00000, 
1037.50000, 
1038.00000, 
1038.50000, 
1039.00000, 
1039.50000, 
1040.00000, 
1040.50000, 
1041.00000, 
1041.50000, 
1042.00000, 
1042.50000, 
1043.00000, 
1043.50000, 
1044.00000, 
1044.50000, 
1045.00000, 
1045.50000, 
1046.00000, 
1046.50000, 
1047.00000, 
1047.50000, 
1048.00000, 
1048.50000, 
1049.00000, 
1049.50000, 
1050.00000, 
1050.50000, 
1051.00000, 
1051.50000, 
1052.00000, 
1052.50000, 
1053.00000, 
1053.50000, 
1054.00000, 
1054.50000, 
1055.00000, 
1055.50000, 
1056.00000, 
1056.50000, 
1057.00000, 
1057.50000, 
1058.00000, 
1058.50000, 
1059.00000, 
1059.50000, 
1060.00000, 
1060.50000, 
1061.00000, 
1061.50000, 
1062.00000, 
1062.50000, 
1063.00000, 
1063.50000, 
1064.00000, 
1064.50000, 
1065.00000, 
1065.50000, 
1066.00000, 
1066.50000, 
1067.00000, 
1067.50000, 
1068.00000, 
1068.50000, 
1069.00000, 
1069.50000, 
1070.00000, 
1070.50000, 
1071.00000, 
1071.50000, 
1072.00000, 
1072.50000, 
1073.00000, 
1073.50000, 
1074.00000, 
1074.50000, 
1075.00000, 
1075.50000, 
1076.00000, 
1076.50000, 
1077.00000, 
1077.50000, 
1078.00000, 
1078.50000, 
1079.00000, 
1079.50000, 
1080.00000, 
1080.50000, 
1081.00000, 
1081.50000, 
1082.00000, 
1082.50000, 
1083.00000, 
1083.50000, 
1084.00000, 
1084.50000, 
1085.00000, 
1085.50000, 
1086.00000, 
1086.50000, 
1087.00000, 
1087.50000, 
1088.00000, 
1088.50000, 
1089.00000, 
1089.50000, 
1090.00000, 
1090.50000, 
1091.00000, 
1091.50000, 
1092.00000, 
1092.50000, 
1093.00000, 
1093.50000, 
1094.00000, 
1094.50000, 
1095.00000, 
1095.50000, 
1096.00000, 
1096.50000, 
1097.00000, 
1097.50000, 
1098.00000, 
1098.50000, 
1099.00000, 
1099.50000, 
1100.00000, 
