"20% Tension H - RawData"
"Wavelength nm.","Abs."
300.00000,3.895248
300.50000, 
301.00000,4.000000
301.50000, 
302.00000,3.962906
302.50000, 
303.00000,3.987595
303.50000, 
304.00000,3.942139
304.50000, 
305.00000,3.949554
305.50000, 
306.00000,3.779068
306.50000, 
307.00000,3.862991
307.50000, 
308.00000,3.892914
308.50000, 
309.00000,3.900192
309.50000, 
310.00000,3.860245
310.50000, 
311.00000,3.819321
311.50000, 
312.00000,3.960922
312.50000, 
313.00000,3.852463
313.50000, 
314.00000,3.970612
314.50000, 
315.00000,3.921738
315.50000, 
316.00000,3.902283
316.50000, 
317.00000,3.797241
317.50000, 
318.00000,3.915710
318.50000, 
319.00000,3.834946
319.50000, 
320.00000,3.854218
320.50000, 
321.00000,3.911804
321.50000, 
322.00000,3.894150
322.50000, 
323.00000,3.887360
323.50000, 
324.00000,3.950577
324.50000, 
325.00000,3.896713
325.50000, 
326.00000,3.946930
326.50000, 
327.00000,3.912888
327.50000, 
328.00000,3.979111
328.50000, 
329.00000,3.942612
329.50000, 
330.00000,3.912964
330.50000, 
331.00000,3.959229
331.50000, 
332.00000,3.834015
332.50000, 
333.00000,3.753815
333.50000, 
334.00000,3.654785
334.50000, 
335.00000,3.879776
335.50000, 
336.00000,3.956650
336.50000, 
337.00000,3.800568
337.50000, 
338.00000,3.824402
338.50000, 
339.00000,3.875458
339.50000, 
340.00000,3.954346
340.50000, 
341.00000,3.709473
341.50000, 
342.00000,3.476059
342.50000, 
343.00000,3.786148
343.50000, 
344.00000,3.958389
344.50000, 
345.00000,3.906342
345.50000, 
346.00000,3.839417
346.50000, 
347.00000,3.786636
347.50000, 
348.00000,3.800903
348.50000, 
349.00000,3.970383
349.50000, 
350.00000,3.890076
350.50000, 
351.00000,3.887390
351.50000, 
352.00000,3.902679
352.50000, 
353.00000,3.902588
353.50000, 
354.00000,3.621933
354.50000, 
355.00000,3.862091
355.50000, 
356.00000,3.868134
356.50000, 
357.00000,3.732269
357.50000, 
358.00000,3.852036
358.50000, 
359.00000,3.925629
359.50000, 
360.00000,3.588531
360.50000, 
361.00000,3.777451
361.50000, 
362.00000,3.966843
362.50000, 
363.00000,3.771896
363.50000, 
364.00000,3.875931
364.50000, 
365.00000,3.683212
365.50000, 
366.00000,3.691223
366.50000, 
367.00000,3.891785
367.50000, 
368.00000,3.902100
368.50000, 
369.00000,3.821884
369.50000, 
370.00000,3.861893
370.50000, 
371.00000,3.752426
371.50000, 
372.00000,3.799011
372.50000, 
373.00000,3.754288
373.50000, 
374.00000,3.810150
374.50000, 
375.00000,3.886444
375.50000, 
376.00000,3.723236
376.50000, 
377.00000,3.666122
377.50000, 
378.00000,3.895660
378.50000, 
379.00000,3.874985
379.50000, 
380.00000,3.912842
380.50000, 
381.00000,3.712677
381.50000, 
382.00000,3.576385
382.50000, 
383.00000,3.497849
383.50000, 
384.00000,3.313797
384.50000, 
385.00000,3.062912
385.50000, 
386.00000,2.859406
386.50000, 
387.00000,2.665024
387.50000, 
388.00000,2.506058
388.50000, 
389.00000,2.344193
389.50000, 
390.00000,2.215714
390.50000, 
391.00000,2.087219
391.50000, 
392.00000,1.978973
392.50000, 
393.00000,1.885727
393.50000, 
394.00000,1.794678
394.50000, 
395.00000,1.716110
395.50000, 
396.00000,1.644730
396.50000, 
397.00000,1.581131
397.50000, 
398.00000,1.528137
398.50000, 
399.00000,1.483505
399.50000, 
400.00000,1.441986
400.50000, 
401.00000,1.408020
401.50000, 
402.00000,1.379852
402.50000, 
403.00000,1.356796
403.50000, 
404.00000,1.337402
404.50000, 
405.00000,1.322311
405.50000, 
406.00000,1.310883
406.50000, 
407.00000,1.300674
407.50000, 
408.00000,1.293869
408.50000, 
409.00000,1.287811
409.50000, 
410.00000,1.283630
410.50000, 
411.00000,1.280869
411.50000, 
412.00000,1.278381
412.50000, 
413.00000,1.276672
413.50000, 
414.00000,1.276413
414.50000, 
415.00000,1.274689
415.50000, 
416.00000,1.274292
416.50000, 
417.00000,1.274033
417.50000, 
418.00000,1.274124
418.50000, 
419.00000,1.275101
419.50000, 
420.00000,1.276230
420.50000, 
421.00000,1.277115
421.50000, 
422.00000,1.278244
422.50000, 
423.00000,1.279602
423.50000, 
424.00000,1.281494
424.50000, 
425.00000,1.283768
425.50000, 
426.00000,1.285614
426.50000, 
427.00000,1.288666
427.50000, 
428.00000,1.292007
428.50000, 
429.00000,1.294922
429.50000, 
430.00000,1.298752
430.50000, 
431.00000,1.303375
431.50000, 
432.00000,1.307175
432.50000, 
433.00000,1.311554
433.50000, 
434.00000,1.315582
434.50000, 
435.00000,1.318954
435.50000, 
436.00000,1.322571
436.50000, 
437.00000,1.326279
437.50000, 
438.00000,1.329498
438.50000, 
439.00000,1.333038
439.50000, 
440.00000,1.336105
440.50000, 
441.00000,1.339569
441.50000, 
442.00000,1.343445
442.50000, 
443.00000,1.346680
443.50000, 
444.00000,1.350601
444.50000, 
445.00000,1.354721
445.50000, 
446.00000,1.358383
446.50000, 
447.00000,1.363235
447.50000, 
448.00000,1.367050
448.50000, 
449.00000,1.371414
449.50000, 
450.00000,1.376007
450.50000, 
451.00000,1.380127
451.50000, 
452.00000,1.385086
452.50000, 
453.00000,1.389725
453.50000, 
454.00000,1.394791
454.50000, 
455.00000,1.400131
455.50000, 
456.00000,1.405243
456.50000, 
457.00000,1.410507
457.50000, 
458.00000,1.415848
458.50000, 
459.00000,1.421402
459.50000, 
460.00000,1.427032
460.50000, 
461.00000,1.432800
461.50000, 
462.00000,1.438522
462.50000, 
463.00000,1.444550
463.50000, 
464.00000,1.450348
464.50000, 
465.00000,1.456573
465.50000, 
466.00000,1.463242
466.50000, 
467.00000,1.469467
467.50000, 
468.00000,1.476212
468.50000, 
469.00000,1.482727
469.50000, 
470.00000,1.490143
470.50000, 
471.00000,1.497894
471.50000, 
472.00000,1.506058
472.50000, 
473.00000,1.515640
473.50000, 
474.00000,1.524033
474.50000, 
475.00000,1.528732
475.50000, 
476.00000,1.533340
476.50000, 
477.00000,1.536331
477.50000, 
478.00000,1.539413
478.50000, 
479.00000,1.541611
479.50000, 
480.00000,1.542831
480.50000, 
481.00000,1.543228
481.50000, 
482.00000,1.542358
482.50000, 
483.00000,1.540863
483.50000, 
484.00000,1.538574
484.50000, 
485.00000,1.535477
485.50000, 
486.00000,1.531952
486.50000, 
487.00000,1.528641
487.50000, 
488.00000,1.525330
488.50000, 
489.00000,1.522797
489.50000, 
490.00000,1.520920
490.50000, 
491.00000,1.520386
491.50000, 
492.00000,1.520935
492.50000, 
493.00000,1.522919
493.50000, 
494.00000,1.526031
494.50000, 
495.00000,1.530182
495.50000, 
496.00000,1.535370
496.50000, 
497.00000,1.541199
497.50000, 
498.00000,1.547607
498.50000, 
499.00000,1.554230
499.50000, 
500.00000,1.561172
500.50000, 
501.00000,1.568283
501.50000, 
502.00000,1.575974
502.50000, 
503.00000,1.583160
503.50000, 
504.00000,1.590240
504.50000, 
505.00000,1.598022
505.50000, 
506.00000,1.605255
506.50000, 
507.00000,1.612076
507.50000, 
508.00000,1.618683
508.50000, 
509.00000,1.625076
509.50000, 
510.00000,1.631088
510.50000, 
511.00000,1.636215
511.50000, 
512.00000,1.640930
512.50000, 
513.00000,1.645386
513.50000, 
514.00000,1.649368
514.50000, 
515.00000,1.652618
515.50000, 
516.00000,1.655533
516.50000, 
517.00000,1.657745
517.50000, 
518.00000,1.659454
518.50000, 
519.00000,1.661087
519.50000, 
520.00000,1.662018
520.50000, 
521.00000,1.662262
521.50000, 
522.00000,1.662018
522.50000, 
523.00000,1.661682
523.50000, 
524.00000,1.661179
524.50000, 
525.00000,1.659500
525.50000, 
526.00000,1.658386
526.50000, 
527.00000,1.656219
527.50000, 
528.00000,1.654388
528.50000, 
529.00000,1.652100
529.50000, 
530.00000,1.650040
530.50000, 
531.00000,1.648270
531.50000, 
532.00000,1.646057
532.50000, 
533.00000,1.643555
533.50000, 
534.00000,1.641876
534.50000, 
535.00000,1.640259
535.50000, 
536.00000,1.638290
536.50000, 
537.00000,1.636551
537.50000, 
538.00000,1.635925
538.50000, 
539.00000,1.635178
539.50000, 
540.00000,1.635284
540.50000, 
541.00000,1.635620
541.50000, 
542.00000,1.635788
542.50000, 
543.00000,1.636307
543.50000, 
544.00000,1.637283
544.50000, 
545.00000,1.638290
545.50000, 
546.00000,1.639206
546.50000, 
547.00000,1.640244
547.50000, 
548.00000,1.641068
548.50000, 
549.00000,1.641998
549.50000, 
550.00000,1.642456
550.50000, 
551.00000,1.642532
551.50000, 
552.00000,1.642258
552.50000, 
553.00000,1.641266
553.50000, 
554.00000,1.640152
554.50000, 
555.00000,1.638168
555.50000, 
556.00000,1.635284
556.50000, 
557.00000,1.631882
557.50000, 
558.00000,1.627350
558.50000, 
559.00000,1.621979
559.50000, 
560.00000,1.616272
560.50000, 
561.00000,1.609268
561.50000, 
562.00000,1.601761
562.50000, 
563.00000,1.593536
563.50000, 
564.00000,1.584091
564.50000, 
565.00000,1.574219
565.50000, 
566.00000,1.563721
566.50000, 
567.00000,1.552902
567.50000, 
568.00000,1.541153
568.50000, 
569.00000,1.529358
569.50000, 
570.00000,1.517059
570.50000, 
571.00000,1.504440
571.50000, 
572.00000,1.491852
572.50000, 
573.00000,1.479431
573.50000, 
574.00000,1.466537
574.50000, 
575.00000,1.453110
575.50000, 
576.00000,1.439972
576.50000, 
577.00000,1.427551
577.50000, 
578.00000,1.415421
578.50000, 
579.00000,1.403839
579.50000, 
580.00000,1.393173
580.50000, 
581.00000,1.383240
581.50000, 
582.00000,1.373947
582.50000, 
583.00000,1.365768
583.50000, 
584.00000,1.357834
584.50000, 
585.00000,1.351059
585.50000, 
586.00000,1.345505
586.50000, 
587.00000,1.340637
587.50000, 
588.00000,1.336624
588.50000, 
589.00000,1.333359
589.50000, 
590.00000,1.330917
590.50000, 
591.00000,1.328964
591.50000, 
592.00000,1.327667
592.50000, 
593.00000,1.326965
593.50000, 
594.00000,1.326477
594.50000, 
595.00000,1.326431
595.50000, 
596.00000,1.326675
596.50000, 
597.00000,1.326843
597.50000, 
598.00000,1.327057
598.50000, 
599.00000,1.326813
599.50000, 
600.00000,1.326477
600.50000, 
601.00000,1.325531
601.50000, 
602.00000,1.324142
602.50000, 
603.00000,1.321869
603.50000, 
604.00000,1.318619
604.50000, 
605.00000,1.314377
605.50000, 
606.00000,1.308731
606.50000, 
607.00000,1.302200
607.50000, 
608.00000,1.294601
608.50000, 
609.00000,1.285675
609.50000, 
610.00000,1.275558
610.50000, 
611.00000,1.264709
611.50000, 
612.00000,1.252258
612.50000, 
613.00000,1.238510
613.50000, 
614.00000,1.223694
614.50000, 
615.00000,1.208008
615.50000, 
616.00000,1.191437
616.50000, 
617.00000,1.174347
617.50000, 
618.00000,1.156296
618.50000, 
619.00000,1.137909
619.50000, 
620.00000,1.118973
620.50000, 
621.00000,1.098953
621.50000, 
622.00000,1.078415
622.50000, 
623.00000,1.057404
623.50000, 
624.00000,1.035873
624.50000, 
625.00000,1.014481
625.50000, 
626.00000,0.994156
626.50000, 
627.00000,0.973999
627.50000, 
628.00000,0.954208
628.50000, 
629.00000,0.935242
629.50000, 
630.00000,0.916931
630.50000, 
631.00000,0.899658
631.50000, 
632.00000,0.883698
632.50000, 
633.00000,0.870178
633.50000, 
634.00000,0.859680
634.50000, 
635.00000,0.844055
635.50000, 
636.00000,0.822372
636.50000, 
637.00000,0.799759
637.50000, 
638.00000,0.777100
638.50000, 
639.00000,0.752899
639.50000, 
640.00000,0.729355
640.50000, 
641.00000,0.707306
641.50000, 
642.00000,0.686249
642.50000, 
643.00000,0.667618
643.50000, 
644.00000,0.651581
644.50000, 
645.00000,0.638641
645.50000, 
646.00000,0.628342
646.50000, 
647.00000,0.620560
647.50000, 
648.00000,0.614792
648.50000, 
649.00000,0.610748
649.50000, 
650.00000,0.608093
650.50000, 
651.00000,0.606430
651.50000, 
652.00000,0.605377
652.50000, 
653.00000,0.604797
653.50000, 
654.00000,0.604599
654.50000, 
655.00000,0.604462
655.50000, 
656.00000,0.604416
656.50000, 
657.00000,0.604431
657.50000, 
658.00000,0.604538
658.50000, 
659.00000,0.604477
659.50000, 
660.00000,0.604477
660.50000, 
661.00000,0.604355
661.50000, 
662.00000,0.604095
662.50000, 
663.00000,0.603897
663.50000, 
664.00000,0.603653
664.50000, 
665.00000,0.603424
665.50000, 
666.00000,0.603043
666.50000, 
667.00000,0.602676
667.50000, 
668.00000,0.602142
668.50000, 
669.00000,0.601685
669.50000, 
670.00000,0.601196
670.50000, 
671.00000,0.600739
671.50000, 
672.00000,0.599930
672.50000, 
673.00000,0.599380
673.50000, 
674.00000,0.598663
674.50000, 
675.00000,0.597977
675.50000, 
676.00000,0.597168
676.50000, 
677.00000,0.596512
677.50000, 
678.00000,0.595551
678.50000, 
679.00000,0.594788
679.50000, 
680.00000,0.593903
680.50000, 
681.00000,0.593094
681.50000, 
682.00000,0.592102
682.50000, 
683.00000,0.591278
683.50000, 
684.00000,0.590363
684.50000, 
685.00000,0.589584
685.50000, 
686.00000,0.588547
686.50000, 
687.00000,0.587646
687.50000, 
688.00000,0.586563
688.50000, 
689.00000,0.585724
689.50000, 
690.00000,0.584610
690.50000, 
691.00000,0.583710
691.50000, 
692.00000,0.582611
692.50000, 
693.00000,0.581635
693.50000, 
694.00000,0.580475
694.50000, 
695.00000,0.579620
695.50000, 
696.00000,0.578400
696.50000, 
697.00000,0.577301
697.50000, 
698.00000,0.576065
698.50000, 
699.00000,0.575073
699.50000, 
700.00000,0.573883
700.50000, 
701.00000,0.572830
701.50000, 
702.00000,0.571609
702.50000, 
703.00000,0.570450
703.50000, 
704.00000,0.569382
704.50000, 
705.00000,0.568100
705.50000, 
706.00000,0.567001
706.50000, 
707.00000,0.565552
707.50000, 
708.00000,0.564499
708.50000, 
709.00000,0.563095
709.50000, 
710.00000,0.562042
710.50000, 
711.00000,0.560516
711.50000, 
712.00000,0.559189
712.50000, 
713.00000,0.557907
713.50000, 
714.00000,0.556458
714.50000, 
715.00000,0.555084
715.50000, 
716.00000,0.553452
716.50000, 
717.00000,0.552292
717.50000, 
718.00000,0.550537
718.50000, 
719.00000,0.549301
719.50000, 
720.00000,0.547607
720.50000, 
721.00000,0.546310
721.50000, 
722.00000,0.544754
722.50000, 
723.00000,0.543320
723.50000, 
724.00000,0.541885
724.50000, 
725.00000,0.540222
725.50000, 
726.00000,0.538971
726.50000, 
727.00000,0.537369
727.50000, 
728.00000,0.536285
728.50000, 
729.00000,0.534637
729.50000, 
730.00000,0.533386
730.50000, 
731.00000,0.532013
731.50000, 
732.00000,0.530640
732.50000, 
733.00000,0.529510
733.50000, 
734.00000,0.527924
734.50000, 
735.00000,0.526825
735.50000, 
736.00000,0.525391
736.50000, 
737.00000,0.524170
737.50000, 
738.00000,0.522888
738.50000, 
739.00000,0.521515
739.50000, 
740.00000,0.520554
740.50000, 
741.00000,0.518890
741.50000, 
742.00000,0.517731
742.50000, 
743.00000,0.516388
743.50000, 
744.00000,0.515045
744.50000, 
745.00000,0.514008
745.50000, 
746.00000,0.512360
746.50000, 
747.00000,0.511307
747.50000, 
748.00000,0.509674
748.50000, 
749.00000,0.508591
749.50000, 
750.00000,0.507370
750.50000, 
751.00000,0.505905
751.50000, 
752.00000,0.504990
752.50000, 
753.00000,0.503510
753.50000, 
754.00000,0.502396
754.50000, 
755.00000,0.501358
755.50000, 
756.00000,0.499832
756.50000, 
757.00000,0.499100
757.50000, 
758.00000,0.497620
758.50000, 
759.00000,0.496552
759.50000, 
760.00000,0.495621
760.50000, 
761.00000,0.494034
761.50000, 
762.00000,0.493210
762.50000, 
763.00000,0.491852
763.50000, 
764.00000,0.490814
764.50000, 
765.00000,0.489746
765.50000, 
766.00000,0.488297
766.50000, 
767.00000,0.487473
767.50000, 
768.00000,0.486069
768.50000, 
769.00000,0.485062
769.50000, 
770.00000,0.484100
770.50000, 
771.00000,0.482651
771.50000, 
772.00000,0.481857
772.50000, 
773.00000,0.480606
773.50000, 
774.00000,0.479324
774.50000, 
775.00000,0.478653
775.50000, 
776.00000,0.477127
776.50000, 
777.00000,0.476379
777.50000, 
778.00000,0.475342
778.50000, 
779.00000,0.474045
779.50000, 
780.00000,0.473465
780.50000, 
781.00000,0.472122
781.50000, 
782.00000,0.471024
782.50000, 
783.00000,0.470215
783.50000, 
784.00000,0.468826
784.50000, 
785.00000,0.468018
785.50000, 
786.00000,0.467209
786.50000, 
787.00000,0.465698
787.50000, 
788.00000,0.465134
788.50000, 
789.00000,0.463806
789.50000, 
790.00000,0.462738
790.50000, 
791.00000,0.461838
791.50000, 
792.00000,0.460388
792.50000, 
793.00000,0.459564
793.50000, 
794.00000,0.458603
794.50000, 
795.00000,0.457184
795.50000, 
796.00000,0.456650
796.50000, 
797.00000,0.455307
797.50000, 
798.00000,0.454041
798.50000, 
799.00000,0.453369
799.50000, 
800.00000,0.451950
800.50000, 
801.00000,0.450790
801.50000, 
802.00000,0.450165
802.50000, 
803.00000,0.448532
803.50000, 
804.00000,0.447601
804.50000, 
805.00000,0.446609
805.50000, 
806.00000,0.445236
806.50000, 
807.00000,0.444199
807.50000, 
808.00000,0.443390
808.50000, 
809.00000,0.441528
809.50000, 
810.00000,0.440613
810.50000, 
811.00000,0.439240
811.50000, 
812.00000,0.437759
812.50000, 
813.00000,0.436783
813.50000, 
814.00000,0.435486
814.50000, 
815.00000,0.433823
815.50000, 
816.00000,0.432861
816.50000, 
817.00000,0.430984
817.50000, 
818.00000,0.429504
818.50000, 
819.00000,0.428406
819.50000, 
820.00000,0.426834
820.50000, 
821.00000,0.425079
821.50000, 
822.00000,0.424255
822.50000, 
823.00000,0.422333
823.50000, 
824.00000,0.420837
824.50000, 
825.00000,0.419693
825.50000, 
826.00000,0.417862
826.50000, 
827.00000,0.416199
827.50000, 
828.00000,0.414917
828.50000, 
829.00000,0.413193
829.50000, 
830.00000,0.411285
830.50000, 
831.00000,0.410187
831.50000, 
832.00000,0.408005
832.50000, 
833.00000,0.406281
833.50000, 
834.00000,0.404831
834.50000, 
835.00000,0.403000
835.50000, 
836.00000,0.400864
836.50000, 
837.00000,0.399582
837.50000, 
838.00000,0.397415
838.50000, 
839.00000,0.395370
839.50000, 
840.00000,0.394043
840.50000, 
841.00000,0.391998
841.50000, 
842.00000,0.389938
842.50000, 
843.00000,0.388382
843.50000, 
844.00000,0.386581
844.50000, 
845.00000,0.384262
845.50000, 
846.00000,0.382980
846.50000, 
847.00000,0.381012
847.50000, 
848.00000,0.378967
848.50000, 
849.00000,0.377350
849.50000, 
850.00000,0.375656
850.50000, 
851.00000,0.373688
851.50000, 
852.00000,0.371811
852.50000, 
853.00000,0.370438
853.50000, 
854.00000,0.367935
854.50000, 
855.00000,0.366119
855.50000, 
856.00000,0.364502
856.50000, 
857.00000,0.362488
857.50000, 
858.00000,0.360367
858.50000, 
859.00000,0.358826
859.50000, 
860.00000,0.356949
860.50000, 
861.00000,0.354721
861.50000, 
862.00000,0.353470
862.50000, 
863.00000,0.351410
863.50000, 
864.00000,0.349411
864.50000, 
865.00000,0.347794
865.50000, 
866.00000,0.346283
866.50000, 
867.00000,0.344299
867.50000, 
868.00000,0.342682
868.50000, 
869.00000,0.341537
869.50000, 
870.00000,0.339310
870.50000, 
871.00000,0.337723
871.50000, 
872.00000,0.336502
872.50000, 
873.00000,0.334839
873.50000, 
874.00000,0.332993
874.50000, 
875.00000,0.331528
875.50000, 
876.00000,0.330429
876.50000, 
877.00000,0.328323
877.50000, 
878.00000,0.326965
878.50000, 
879.00000,0.325806
879.50000, 
880.00000,0.323929
880.50000, 
881.00000,0.322357
881.50000, 
882.00000,0.321106
882.50000, 
883.00000,0.319931
883.50000, 
884.00000,0.318069
884.50000, 
885.00000,0.316971
885.50000, 
886.00000,0.316025
886.50000, 
887.00000,0.314316
887.50000, 
888.00000,0.313034
888.50000, 
889.00000,0.311981
889.50000, 
890.00000,0.310944
890.50000, 
891.00000,0.309418
891.50000, 
892.00000,0.308456
892.50000, 
893.00000,0.307861
893.50000, 
894.00000,0.306183
894.50000, 
895.00000,0.305222
895.50000, 
896.00000,0.304749
896.50000, 
897.00000,0.303406
897.50000, 
898.00000,0.302383
898.50000, 
899.00000,0.301529
899.50000, 
900.00000,0.300705
900.50000, 
901.00000, 
901.50000, 
902.00000, 
902.50000, 
903.00000, 
903.50000, 
904.00000, 
904.50000, 
905.00000, 
905.50000, 
906.00000, 
906.50000, 
907.00000, 
907.50000, 
908.00000, 
908.50000, 
909.00000, 
909.50000, 
910.00000, 
910.50000, 
911.00000, 
911.50000, 
912.00000, 
912.50000, 
913.00000, 
913.50000, 
914.00000, 
914.50000, 
915.00000, 
915.50000, 
916.00000, 
916.50000, 
917.00000, 
917.50000, 
918.00000, 
918.50000, 
919.00000, 
919.50000, 
920.00000, 
920.50000, 
921.00000, 
921.50000, 
922.00000, 
922.50000, 
923.00000, 
923.50000, 
924.00000, 
924.50000, 
925.00000, 
925.50000, 
926.00000, 
926.50000, 
927.00000, 
927.50000, 
928.00000, 
928.50000, 
929.00000, 
929.50000, 
930.00000, 
930.50000, 
931.00000, 
931.50000, 
932.00000, 
932.50000, 
933.00000, 
933.50000, 
934.00000, 
934.50000, 
935.00000, 
935.50000, 
936.00000, 
936.50000, 
937.00000, 
937.50000, 
938.00000, 
938.50000, 
939.00000, 
939.50000, 
940.00000, 
940.50000, 
941.00000, 
941.50000, 
942.00000, 
942.50000, 
943.00000, 
943.50000, 
944.00000, 
944.50000, 
945.00000, 
945.50000, 
946.00000, 
946.50000, 
947.00000, 
947.50000, 
948.00000, 
948.50000, 
949.00000, 
949.50000, 
950.00000, 
950.50000, 
951.00000, 
951.50000, 
952.00000, 
952.50000, 
953.00000, 
953.50000, 
954.00000, 
954.50000, 
955.00000, 
955.50000, 
956.00000, 
956.50000, 
957.00000, 
957.50000, 
958.00000, 
958.50000, 
959.00000, 
959.50000, 
960.00000, 
960.50000, 
961.00000, 
961.50000, 
962.00000, 
962.50000, 
963.00000, 
963.50000, 
964.00000, 
964.50000, 
965.00000, 
965.50000, 
966.00000, 
966.50000, 
967.00000, 
967.50000, 
968.00000, 
968.50000, 
969.00000, 
969.50000, 
970.00000, 
970.50000, 
971.00000, 
971.50000, 
972.00000, 
972.50000, 
973.00000, 
973.50000, 
974.00000, 
974.50000, 
975.00000, 
975.50000, 
976.00000, 
976.50000, 
977.00000, 
977.50000, 
978.00000, 
978.50000, 
979.00000, 
979.50000, 
980.00000, 
980.50000, 
981.00000, 
981.50000, 
982.00000, 
982.50000, 
983.00000, 
983.50000, 
984.00000, 
984.50000, 
985.00000, 
985.50000, 
986.00000, 
986.50000, 
987.00000, 
987.50000, 
988.00000, 
988.50000, 
989.00000, 
989.50000, 
990.00000, 
990.50000, 
991.00000, 
991.50000, 
992.00000, 
992.50000, 
993.00000, 
993.50000, 
994.00000, 
994.50000, 
995.00000, 
995.50000, 
996.00000, 
996.50000, 
997.00000, 
997.50000, 
998.00000, 
998.50000, 
999.00000, 
999.50000, 
1000.00000, 
1000.50000, 
1001.00000, 
1001.50000, 
1002.00000, 
1002.50000, 
1003.00000, 
1003.50000, 
1004.00000, 
1004.50000, 
1005.00000, 
1005.50000, 
1006.00000, 
1006.50000, 
1007.00000, 
1007.50000, 
1008.00000, 
1008.50000, 
1009.00000, 
1009.50000, 
1010.00000, 
1010.50000, 
1011.00000, 
1011.50000, 
1012.00000, 
1012.50000, 
1013.00000, 
1013.50000, 
1014.00000, 
1014.50000, 
1015.00000, 
1015.50000, 
1016.00000, 
1016.50000, 
1017.00000, 
1017.50000, 
1018.00000, 
1018.50000, 
1019.00000, 
1019.50000, 
1020.00000, 
1020.50000, 
1021.00000, 
1021.50000, 
1022.00000, 
1022.50000, 
1023.00000, 
1023.50000, 
1024.00000, 
1024.50000, 
1025.00000, 
1025.50000, 
1026.00000, 
1026.50000, 
1027.00000, 
1027.50000, 
1028.00000, 
1028.50000, 
1029.00000, 
1029.50000, 
1030.00000, 
1030.50000, 
1031.00000, 
1031.50000, 
1032.00000, 
1032.50000, 
1033.00000, 
1033.50000, 
1034.00000, 
1034.50000, 
1035.00000, 
1035.50000, 
1036.00000, 
1036.50000, 
1037.00000, 
1037.50000, 
1038.00000, 
1038.50000, 
1039.00000, 
1039.50000, 
1040.00000, 
1040.50000, 
1041.00000, 
1041.50000, 
1042.00000, 
1042.50000, 
1043.00000, 
1043.50000, 
1044.00000, 
1044.50000, 
1045.00000, 
1045.50000, 
1046.00000, 
1046.50000, 
1047.00000, 
1047.50000, 
1048.00000, 
1048.50000, 
1049.00000, 
1049.50000, 
1050.00000, 
1050.50000, 
1051.00000, 
1051.50000, 
1052.00000, 
1052.50000, 
1053.00000, 
1053.50000, 
1054.00000, 
1054.50000, 
1055.00000, 
1055.50000, 
1056.00000, 
1056.50000, 
1057.00000, 
1057.50000, 
1058.00000, 
1058.50000, 
1059.00000, 
1059.50000, 
1060.00000, 
1060.50000, 
1061.00000, 
1061.50000, 
1062.00000, 
1062.50000, 
1063.00000, 
1063.50000, 
1064.00000, 
1064.50000, 
1065.00000, 
1065.50000, 
1066.00000, 
1066.50000, 
1067.00000, 
1067.50000, 
1068.00000, 
1068.50000, 
1069.00000, 
1069.50000, 
1070.00000, 
1070.50000, 
1071.00000, 
1071.50000, 
1072.00000, 
1072.50000, 
1073.00000, 
1073.50000, 
1074.00000, 
1074.50000, 
1075.00000, 
1075.50000, 
1076.00000, 
1076.50000, 
1077.00000, 
1077.50000, 
1078.00000, 
1078.50000, 
1079.00000, 
1079.50000, 
1080.00000, 
1080.50000, 
1081.00000, 
1081.50000, 
1082.00000, 
1082.50000, 
1083.00000, 
1083.50000, 
1084.00000, 
1084.50000, 
1085.00000, 
1085.50000, 
1086.00000, 
1086.50000, 
1087.00000, 
1087.50000, 
1088.00000, 
1088.50000, 
1089.00000, 
1089.50000, 
1090.00000, 
1090.50000, 
1091.00000, 
1091.50000, 
1092.00000, 
1092.50000, 
1093.00000, 
1093.50000, 
1094.00000, 
1094.50000, 
1095.00000, 
1095.50000, 
1096.00000, 
1096.50000, 
1097.00000, 
1097.50000, 
1098.00000, 
1098.50000, 
1099.00000, 
1099.50000, 
1100.00000, 
